PE IR                   SPECTRUM    ASCII       PEDS        1.60        
  -1
~SP.SP
18/03/23
17:41:37.00
18/03/23
17:41:37.00
pili
NI
650.000000
4









SPECTRUM 100,CPU32 MAIN 00.02.8200 12-DECEMBER-2006 10:00:00
MIR TGS
MIR
OPTKBR
78890
0.200000

4.000000
STRONG
RATIO
SPECTRUM
MAGNITUDE
UNIVERSAL ATR
DOUBLE

COMBINED


0


#HDR
-1
-1
#GR
CM-1
%T
0.00002384185791015625
0.0
4000.000000
-1.000000
3351
8
101.204118
53.119843
#DATA
4000.000000	98.408923  
3999.000000	98.411087  
3998.000000	98.413262  
3997.000000	98.412360  
3996.000000	98.410318  
3995.000000	98.411105  
3994.000000	98.418833  
3993.000000	98.434438  
3992.000000	98.452975  
3991.000000	98.466163  
3990.000000	98.469003  
3989.000000	98.463555  
3988.000000	98.455670  
3987.000000	98.448825  
3986.000000	98.442327  
3985.000000	98.434734  
3984.000000	98.426919  
3983.000000	98.420720  
3982.000000	98.415730  
3981.000000	98.409457  
3980.000000	98.401413  
3979.000000	98.395861  
3978.000000	98.398914  
3977.000000	98.412386  
3976.000000	98.431027  
3975.000000	98.446464  
3974.000000	98.453597  
3973.000000	98.453230  
3972.000000	98.449375  
3971.000000	98.445282  
3970.000000	98.442101  
3969.000000	98.439862  
3968.000000	98.438616  
3967.000000	98.438474  
3966.000000	98.438936  
3965.000000	98.438525  
3964.000000	98.435250  
3963.000000	98.427749  
3962.000000	98.416221  
3961.000000	98.402530  
3960.000000	98.389796  
3959.000000	98.381793  
3958.000000	98.381779  
3957.000000	98.390242  
3956.000000	98.403390  
3955.000000	98.415147  
3954.000000	98.421850  
3953.000000	98.424775  
3952.000000	98.427468  
3951.000000	98.431111  
3950.000000	98.433318  
3949.000000	98.431512  
3948.000000	98.426859  
3947.000000	98.423775  
3946.000000	98.425407  
3945.000000	98.430253  
3944.000000	98.433641  
3943.000000	98.432290  
3942.000000	98.427028  
3941.000000	98.421011  
3940.000000	98.416153  
3939.000000	98.412794  
3938.000000	98.412504  
3937.000000	98.417761  
3936.000000	98.427812  
3935.000000	98.436721  
3934.000000	98.437597  
3933.000000	98.429421  
3932.000000	98.418346  
3931.000000	98.411895  
3930.000000	98.412504  
3929.000000	98.416678  
3928.000000	98.419321  
3927.000000	98.417551  
3926.000000	98.411803  
3925.000000	98.405276  
3924.000000	98.402218  
3923.000000	98.404606  
3922.000000	98.409457  
3921.000000	98.411647  
3920.000000	98.410012  
3919.000000	98.408307  
3918.000000	98.409792  
3917.000000	98.413472  
3916.000000	98.416681  
3915.000000	98.418729  
3914.000000	98.420176  
3913.000000	98.420856  
3912.000000	98.420885  
3911.000000	98.421463  
3910.000000	98.424046  
3909.000000	98.428898  
3908.000000	98.434926  
3907.000000	98.440423  
3906.000000	98.443449  
3905.000000	98.443022  
3904.000000	98.440907  
3903.000000	98.442048  
3902.000000	98.449593  
3901.000000	98.459139  
3900.000000	98.461997  
3899.000000	98.455086  
3898.000000	98.444316  
3897.000000	98.437549  
3896.000000	98.437671  
3895.000000	98.443194  
3894.000000	98.451316  
3893.000000	98.457019  
3892.000000	98.453910  
3891.000000	98.441044  
3890.000000	98.427785  
3889.000000	98.424474  
3888.000000	98.430380  
3887.000000	98.437213  
3886.000000	98.439261  
3885.000000	98.439305  
3884.000000	98.446761  
3883.000000	98.464199  
3882.000000	98.480453  
3881.000000	98.482643  
3880.000000	98.469760  
3879.000000	98.454591  
3878.000000	98.450852  
3877.000000	98.458959  
3876.000000	98.469466  
3875.000000	98.475100  
3874.000000	98.477059  
3873.000000	98.483792  
3872.000000	98.499421  
3871.000000	98.514084  
3870.000000	98.513313  
3869.000000	98.497371  
3868.000000	98.482006  
3867.000000	98.475420  
3866.000000	98.470351  
3865.000000	98.460000  
3864.000000	98.447342  
3863.000000	98.440223  
3862.000000	98.443719  
3861.000000	98.456273  
3860.000000	98.472145  
3859.000000	98.484093  
3858.000000	98.486826  
3857.000000	98.481325  
3856.000000	98.474691  
3855.000000	98.473516  
3854.000000	98.473174  
3853.000000	98.462757  
3852.000000	98.450012  
3851.000000	98.449849  
3850.000000	98.455996  
3849.000000	98.458775  
3848.000000	98.461212  
3847.000000	98.468178  
3846.000000	98.478128  
3845.000000	98.485387  
3844.000000	98.486186  
3843.000000	98.481165  
3842.000000	98.474931  
3841.000000	98.472419  
3840.000000	98.475786  
3839.000000	98.484359  
3838.000000	98.495607  
3837.000000	98.506003  
3836.000000	98.512335  
3835.000000	98.512533  
3834.000000	98.505813  
3833.000000	98.492958  
3832.000000	98.476417  
3831.000000	98.460950  
3830.000000	98.452335  
3829.000000	98.453177  
3828.000000	98.460874  
3827.000000	98.469673  
3826.000000	98.475498  
3825.000000	98.478891  
3824.000000	98.481617  
3823.000000	98.482571  
3822.000000	98.479017  
3821.000000	98.469026  
3820.000000	98.457684  
3819.000000	98.454668  
3818.000000	98.458644  
3817.000000	98.462310  
3816.000000	98.464645  
3815.000000	98.469092  
3814.000000	98.478632  
3813.000000	98.489565  
3812.000000	98.495792  
3811.000000	98.499315  
3810.000000	98.505288  
3809.000000	98.510900  
3808.000000	98.506353  
3807.000000	98.487721  
3806.000000	98.466545  
3805.000000	98.459012  
3804.000000	98.466480  
3803.000000	98.475829  
3802.000000	98.475587  
3801.000000	98.466615  
3800.000000	98.462731  
3799.000000	98.472245  
3798.000000	98.484479  
3797.000000	98.486745  
3796.000000	98.478612  
3795.000000	98.468784  
3794.000000	98.465266  
3793.000000	98.468374  
3792.000000	98.473345  
3791.000000	98.475899  
3790.000000	98.474534  
3789.000000	98.471474  
3788.000000	98.471651  
3787.000000	98.477470  
3786.000000	98.484058  
3785.000000	98.482501  
3784.000000	98.470235  
3783.000000	98.455470  
3782.000000	98.449030  
3781.000000	98.453727  
3780.000000	98.462603  
3779.000000	98.466515  
3778.000000	98.463625  
3777.000000	98.458328  
3776.000000	98.453092  
3775.000000	98.447130  
3774.000000	98.440782  
3773.000000	98.436081  
3772.000000	98.433388  
3771.000000	98.430775  
3770.000000	98.428456  
3769.000000	98.431522  
3768.000000	98.443802  
3767.000000	98.459244  
3766.000000	98.465497  
3765.000000	98.457722  
3764.000000	98.445051  
3763.000000	98.441544  
3762.000000	98.453095  
3761.000000	98.475037  
3760.000000	98.497749  
3759.000000	98.511442  
3758.000000	98.510869  
3757.000000	98.498256  
3756.000000	98.481971  
3755.000000	98.471408  
3754.000000	98.471299  
3753.000000	98.479468  
3752.000000	98.488043  
3751.000000	98.488486  
3750.000000	98.479487  
3749.000000	98.469091  
3748.000000	98.465235  
3747.000000	98.467112  
3746.000000	98.467844  
3745.000000	98.462230  
3744.000000	98.451445  
3743.000000	98.447870  
3742.000000	98.458060  
3741.000000	98.465274  
3740.000000	98.456199  
3739.000000	98.437318  
3738.000000	98.418940  
3737.000000	98.405175  
3736.000000	98.399247  
3735.000000	98.408746  
3734.000000	98.435382  
3733.000000	98.463954  
3732.000000	98.473610  
3731.000000	98.460132  
3730.000000	98.437799  
3729.000000	98.422924  
3728.000000	98.422641  
3727.000000	98.434126  
3726.000000	98.447980  
3725.000000	98.454981  
3724.000000	98.451572  
3723.000000	98.441359  
3722.000000	98.433420  
3721.000000	98.434879  
3720.000000	98.444438  
3719.000000	98.454632  
3718.000000	98.460053  
3717.000000	98.461851  
3716.000000	98.464537  
3715.000000	98.468995  
3714.000000	98.470623  
3713.000000	98.465077  
3712.000000	98.453682  
3711.000000	98.442447  
3710.000000	98.437177  
3709.000000	98.439818  
3708.000000	98.449199  
3707.000000	98.464110  
3706.000000	98.483155  
3705.000000	98.501783  
3704.000000	98.511241  
3703.000000	98.503067  
3702.000000	98.477794  
3701.000000	98.449263  
3700.000000	98.436093  
3699.000000	98.446243  
3698.000000	98.470638  
3697.000000	98.492671  
3696.000000	98.502776  
3695.000000	98.503571  
3694.000000	98.503446  
3693.000000	98.509007  
3692.000000	98.522808  
3691.000000	98.541338  
3690.000000	98.552872  
3689.000000	98.544594  
3688.000000	98.518329  
3687.000000	98.492043  
3686.000000	98.480980  
3685.000000	98.485862  
3684.000000	98.499073  
3683.000000	98.513614  
3682.000000	98.525712  
3681.000000	98.533428  
3680.000000	98.535508  
3679.000000	98.533334  
3678.000000	98.529640  
3677.000000	98.523753  
3676.000000	98.512369  
3675.000000	98.499234  
3674.000000	98.501062  
3673.000000	98.525980  
3672.000000	98.557745  
3671.000000	98.576485  
3670.000000	98.575438  
3669.000000	98.562255  
3668.000000	98.551952  
3667.000000	98.549262  
3666.000000	98.547999  
3665.000000	98.544305  
3664.000000	98.539061  
3663.000000	98.534313  
3662.000000	98.531939  
3661.000000	98.533822  
3660.000000	98.540406  
3659.000000	98.548191  
3658.000000	98.549515  
3657.000000	98.539388  
3656.000000	98.524325  
3655.000000	98.520935  
3654.000000	98.539521  
3653.000000	98.571755  
3652.000000	98.598813  
3651.000000	98.605950  
3650.000000	98.590446  
3649.000000	98.562526  
3648.000000	98.537232  
3647.000000	98.522743  
3646.000000	98.519439  
3645.000000	98.525651  
3644.000000	98.539345  
3643.000000	98.556493  
3642.000000	98.571245  
3641.000000	98.578969  
3640.000000	98.578874  
3639.000000	98.573543  
3638.000000	98.566502  
3637.000000	98.560373  
3636.000000	98.554794  
3635.000000	98.546634  
3634.000000	98.534439  
3633.000000	98.522601  
3632.000000	98.518542  
3631.000000	98.525547  
3630.000000	98.538848  
3629.000000	98.546762  
3628.000000	98.544999  
3627.000000	98.545945  
3626.000000	98.555851  
3625.000000	98.567085  
3624.000000	98.575780  
3623.000000	98.584310  
3622.000000	98.594282  
3621.000000	98.604699  
3620.000000	98.614018  
3619.000000	98.622060  
3618.000000	98.630294  
3617.000000	98.639120  
3616.000000	98.644345  
3615.000000	98.641239  
3614.000000	98.631300  
3613.000000	98.622015  
3612.000000	98.620241  
3611.000000	98.625581  
3610.000000	98.630425  
3609.000000	98.627517  
3608.000000	98.616922  
3607.000000	98.606034  
3606.000000	98.603592  
3605.000000	98.613238  
3604.000000	98.632287  
3603.000000	98.653655  
3602.000000	98.668971  
3601.000000	98.674247  
3600.000000	98.673731  
3599.000000	98.675807  
3598.000000	98.684397  
3597.000000	98.696967  
3596.000000	98.709243  
3595.000000	98.718928  
3594.000000	98.725211  
3593.000000	98.727344  
3592.000000	98.724857  
3591.000000	98.719033  
3590.000000	98.713611  
3589.000000	98.711636  
3588.000000	98.711303  
3587.000000	98.709465  
3586.000000	98.709727  
3585.000000	98.718126  
3584.000000	98.733375  
3583.000000	98.748617  
3582.000000	98.758753  
3581.000000	98.763807  
3580.000000	98.767421  
3579.000000	98.773007  
3578.000000	98.780834  
3577.000000	98.788453  
3576.000000	98.792937  
3575.000000	98.792010  
3574.000000	98.784655  
3573.000000	98.772383  
3572.000000	98.760609  
3571.000000	98.757419  
3570.000000	98.768646  
3569.000000	98.791275  
3568.000000	98.811474  
3567.000000	98.815913  
3566.000000	98.808399  
3565.000000	98.807017  
3564.000000	98.823111  
3563.000000	98.851843  
3562.000000	98.879717  
3561.000000	98.895545  
3560.000000	98.897295  
3559.000000	98.892136  
3558.000000	98.890165  
3557.000000	98.897004  
3556.000000	98.911183  
3555.000000	98.927320  
3554.000000	98.941404  
3553.000000	98.953813  
3552.000000	98.967928  
3551.000000	98.986036  
3550.000000	99.005845  
3549.000000	99.020460  
3548.000000	99.022854  
3547.000000	99.012508  
3546.000000	98.998683  
3545.000000	98.994791  
3544.000000	99.006562  
3543.000000	99.026477  
3542.000000	99.041419  
3541.000000	99.044939  
3540.000000	99.041044  
3539.000000	99.037852  
3538.000000	99.040338  
3537.000000	99.049531  
3536.000000	99.064970  
3535.000000	99.085184  
3534.000000	99.106468  
3533.000000	99.124100  
3532.000000	99.135405  
3531.000000	99.140896  
3530.000000	99.142448  
3529.000000	99.141390  
3528.000000	99.138618  
3527.000000	99.135353  
3526.000000	99.133198  
3525.000000	99.133954  
3524.000000	99.139931  
3523.000000	99.153382  
3522.000000	99.174312  
3521.000000	99.198276  
3520.000000	99.217252  
3519.000000	99.224860  
3518.000000	99.222210  
3517.000000	99.218068  
3516.000000	99.221322  
3515.000000	99.233243  
3514.000000	99.247631  
3513.000000	99.257764  
3512.000000	99.261407  
3511.000000	99.260070  
3510.000000	99.256474  
3509.000000	99.253789  
3508.000000	99.255068  
3507.000000	99.261215  
3506.000000	99.269981  
3505.000000	99.277645  
3504.000000	99.280786  
3503.000000	99.276710  
3502.000000	99.264860  
3501.000000	99.249069  
3500.000000	99.236811  
3499.000000	99.234472  
3498.000000	99.243334  
3497.000000	99.259754  
3496.000000	99.277862  
3495.000000	99.291626  
3494.000000	99.296731  
3493.000000	99.293340  
3492.000000	99.286376  
3491.000000	99.280805  
3490.000000	99.276562  
3489.000000	99.269697  
3488.000000	99.258588  
3487.000000	99.247437  
3486.000000	99.243452  
3485.000000	99.251271  
3484.000000	99.268926  
3483.000000	99.287040  
3482.000000	99.293414  
3481.000000	99.282896  
3480.000000	99.263372  
3479.000000	99.249146  
3478.000000	99.247242  
3477.000000	99.252111  
3476.000000	99.254290  
3475.000000	99.251658  
3474.000000	99.250252  
3473.000000	99.255726  
3472.000000	99.267528  
3471.000000	99.281190  
3470.000000	99.293183  
3469.000000	99.302414  
3468.000000	99.309511  
3467.000000	99.316818  
3466.000000	99.327580  
3465.000000	99.342241  
3464.000000	99.355629  
3463.000000	99.360784  
3462.000000	99.357563  
3461.000000	99.355590  
3460.000000	99.365809  
3459.000000	99.388657  
3458.000000	99.412191  
3457.000000	99.422818  
3456.000000	99.417172  
3455.000000	99.403657  
3454.000000	99.393837  
3453.000000	99.393797  
3452.000000	99.402749  
3451.000000	99.416451  
3450.000000	99.429459  
3449.000000	99.435411  
3448.000000	99.429284  
3447.000000	99.412219  
3446.000000	99.392934  
3445.000000	99.381337  
3444.000000	99.380309  
3443.000000	99.384764  
3442.000000	99.387934  
3441.000000	99.386967  
3440.000000	99.382733  
3439.000000	99.377069  
3438.000000	99.372160  
3437.000000	99.370519  
3436.000000	99.372360  
3435.000000	99.373572  
3434.000000	99.369073  
3433.000000	99.358952  
3432.000000	99.349372  
3431.000000	99.346504  
3430.000000	99.351044  
3429.000000	99.359307  
3428.000000	99.367877  
3427.000000	99.375675  
3426.000000	99.382678  
3425.000000	99.388364  
3424.000000	99.391275  
3423.000000	99.389389  
3422.000000	99.381691  
3421.000000	99.370205  
3420.000000	99.359470  
3419.000000	99.352860  
3418.000000	99.350066  
3417.000000	99.348844  
3416.000000	99.347798  
3415.000000	99.346098  
3414.000000	99.342096  
3413.000000	99.334928  
3412.000000	99.327428  
3411.000000	99.324746  
3410.000000	99.328823  
3409.000000	99.335576  
3408.000000	99.338603  
3407.000000	99.334801  
3406.000000	99.325419  
3405.000000	99.312653  
3404.000000	99.297269  
3403.000000	99.280089  
3402.000000	99.264319  
3401.000000	99.254642  
3400.000000	99.253493  
3399.000000	99.258899  
3398.000000	99.266090  
3397.000000	99.270444  
3396.000000	99.268837  
3395.000000	99.260251  
3394.000000	99.247400  
3393.000000	99.237125  
3392.000000	99.236348  
3391.000000	99.246061  
3390.000000	99.259932  
3389.000000	99.268985  
3388.000000	99.267374  
3387.000000	99.255147  
3386.000000	99.238185  
3385.000000	99.225398  
3384.000000	99.222675  
3383.000000	99.227608  
3382.000000	99.231720  
3381.000000	99.229518  
3380.000000	99.224391  
3379.000000	99.224744  
3378.000000	99.235349  
3377.000000	99.253251  
3376.000000	99.270468  
3375.000000	99.279379  
3374.000000	99.277212  
3373.000000	99.267792  
3372.000000	99.258895  
3371.000000	99.256218  
3370.000000	99.259340  
3369.000000	99.263531  
3368.000000	99.264899  
3367.000000	99.263571  
3366.000000	99.263100  
3365.000000	99.267305  
3364.000000	99.276309  
3363.000000	99.284892  
3362.000000	99.286244  
3361.000000	99.278693  
3360.000000	99.267355  
3359.000000	99.257965  
3358.000000	99.250598  
3357.000000	99.241430  
3356.000000	99.229291  
3355.000000	99.217553  
3354.000000	99.209450  
3353.000000	99.204164  
3352.000000	99.198674  
3351.000000	99.192144  
3350.000000	99.187339  
3349.000000	99.187816  
3348.000000	99.193806  
3347.000000	99.200557  
3346.000000	99.201304  
3345.000000	99.193159  
3344.000000	99.180761  
3343.000000	99.173661  
3342.000000	99.178775  
3341.000000	99.193818  
3340.000000	99.207425  
3339.000000	99.207455  
3338.000000	99.191863  
3337.000000	99.171627  
3336.000000	99.160774  
3335.000000	99.162563  
3334.000000	99.167057  
3333.000000	99.162190  
3332.000000	99.144616  
3331.000000	99.119673  
3330.000000	99.095409  
3329.000000	99.080005  
3328.000000	99.081029  
3327.000000	99.100491  
3326.000000	99.129812  
3325.000000	99.154215  
3324.000000	99.163988  
3323.000000	99.159543  
3322.000000	99.145823  
3321.000000	99.126414  
3320.000000	99.105008  
3319.000000	99.087796  
3318.000000	99.079039  
3317.000000	99.075242  
3316.000000	99.068393  
3315.000000	99.055939  
3314.000000	99.044172  
3313.000000	99.039935  
3312.000000	99.041696  
3311.000000	99.041277  
3310.000000	99.032681  
3309.000000	99.016211  
3308.000000	98.994918  
3307.000000	98.971177  
3306.000000	98.947958  
3305.000000	98.929976  
3304.000000	98.920501  
3303.000000	98.918300  
3302.000000	98.919684  
3301.000000	98.921973  
3300.000000	98.922482  
3299.000000	98.916038  
3298.000000	98.898113  
3297.000000	98.871263  
3296.000000	98.845005  
3295.000000	98.827064  
3294.000000	98.816004  
3293.000000	98.803577  
3292.000000	98.783395  
3291.000000	98.757097  
3290.000000	98.733213  
3289.000000	98.719959  
3288.000000	98.717386  
3287.000000	98.716097  
3286.000000	98.705254  
3285.000000	98.682363  
3284.000000	98.654149  
3283.000000	98.628782  
3282.000000	98.609974  
3281.000000	98.598093  
3280.000000	98.592597  
3279.000000	98.591410  
3278.000000	98.591125  
3277.000000	98.590336  
3276.000000	98.590827  
3275.000000	98.593784  
3274.000000	98.596924  
3273.000000	98.596837  
3272.000000	98.591329  
3271.000000	98.577587  
3270.000000	98.551748  
3269.000000	98.514471  
3268.000000	98.475149  
3267.000000	98.446013  
3266.000000	98.431598  
3265.000000	98.426320  
3264.000000	98.421942  
3263.000000	98.414869  
3262.000000	98.406581  
3261.000000	98.399936  
3260.000000	98.395593  
3259.000000	98.390007  
3258.000000	98.376621  
3257.000000	98.350934  
3256.000000	98.315306  
3255.000000	98.278001  
3254.000000	98.247290  
3253.000000	98.226714  
3252.000000	98.214786  
3251.000000	98.207339  
3250.000000	98.200158  
3249.000000	98.190792  
3248.000000	98.178246  
3247.000000	98.160862  
3246.000000	98.135910  
3245.000000	98.103054  
3244.000000	98.067790  
3243.000000	98.039464  
3242.000000	98.024680  
3241.000000	98.022076  
3240.000000	98.022626  
3239.000000	98.015279  
3238.000000	97.994221  
3237.000000	97.962041  
3236.000000	97.925704  
3235.000000	97.889893  
3234.000000	97.855629  
3233.000000	97.824354  
3232.000000	97.799460  
3231.000000	97.782139  
3230.000000	97.768825  
3229.000000	97.755277  
3228.000000	97.741159  
3227.000000	97.728321  
3226.000000	97.716799  
3225.000000	97.705294  
3224.000000	97.693480  
3223.000000	97.680209  
3222.000000	97.660857  
3221.000000	97.630881  
3220.000000	97.592603  
3219.000000	97.555158  
3218.000000	97.526470  
3217.000000	97.507034  
3216.000000	97.491627  
3215.000000	97.474844  
3214.000000	97.454640  
3213.000000	97.432849  
3212.000000	97.413513  
3211.000000	97.399552  
3210.000000	97.390044  
3209.000000	97.380861  
3208.000000	97.367536  
3207.000000	97.346749  
3206.000000	97.316311  
3205.000000	97.276463  
3204.000000	97.232042  
3203.000000	97.191473  
3202.000000	97.161611  
3201.000000	97.142693  
3200.000000	97.128002  
3199.000000	97.108844  
3198.000000	97.081273  
3197.000000	97.048728  
3196.000000	97.017152  
3195.000000	96.987108  
3194.000000	96.952344  
3193.000000	96.907276  
3192.000000	96.854280  
3191.000000	96.801848  
3190.000000	96.756681  
3189.000000	96.719276  
3188.000000	96.685540  
3187.000000	96.649618  
3186.000000	96.605762  
3185.000000	96.551294  
3184.000000	96.489533  
3183.000000	96.427923  
3182.000000	96.371483  
3181.000000	96.318653  
3180.000000	96.264241  
3179.000000	96.205374  
3178.000000	96.143132  
3177.000000	96.078859  
3176.000000	96.011352  
3175.000000	95.939552  
3174.000000	95.866855  
3173.000000	95.799489  
3172.000000	95.739245  
3171.000000	95.680637  
3170.000000	95.618499  
3169.000000	95.556861  
3168.000000	95.505792  
3167.000000	95.468892  
3166.000000	95.437890  
3165.000000	95.401154  
3164.000000	95.354211  
3163.000000	95.300048  
3162.000000	95.242484  
3161.000000	95.182470  
3160.000000	95.119094  
3159.000000	95.051605  
3158.000000	94.981751  
3157.000000	94.915271  
3156.000000	94.857546  
3155.000000	94.804585  
3154.000000	94.741804  
3153.000000	94.657555  
3152.000000	94.557444  
3151.000000	94.460295  
3150.000000	94.379087  
3149.000000	94.309655  
3148.000000	94.238771  
3147.000000	94.159126  
3146.000000	94.074159  
3145.000000	93.991104  
3144.000000	93.912545  
3143.000000	93.834509  
3142.000000	93.751190  
3141.000000	93.661126  
3140.000000	93.568731  
3139.000000	93.479730  
3138.000000	93.396041  
3137.000000	93.316054  
3136.000000	93.238185  
3135.000000	93.161131  
3134.000000	93.080591  
3133.000000	92.989145  
3132.000000	92.882138  
3131.000000	92.763430  
3130.000000	92.643887  
3129.000000	92.533331  
3128.000000	92.433004  
3127.000000	92.334875  
3126.000000	92.228359  
3125.000000	92.108410  
3124.000000	91.977537  
3123.000000	91.840844  
3122.000000	91.700972  
3121.000000	91.558324  
3120.000000	91.413395  
3119.000000	91.265838  
3118.000000	91.112216  
3117.000000	90.947938  
3116.000000	90.772029  
3115.000000	90.587727  
3114.000000	90.397689  
3113.000000	90.200659  
3112.000000	89.994177  
3111.000000	89.779280  
3110.000000	89.561051  
3109.000000	89.344892  
3108.000000	89.133024  
3107.000000	88.924162  
3106.000000	88.715461  
3105.000000	88.504419  
3104.000000	88.289669  
3103.000000	88.071181  
3102.000000	87.850426  
3101.000000	87.629861  
3100.000000	87.411023  
3099.000000	87.192902  
3098.000000	86.973350  
3097.000000	86.752750  
3096.000000	86.535378  
3095.000000	86.326167  
3094.000000	86.126641  
3093.000000	85.934862  
3092.000000	85.748900  
3091.000000	85.569313  
3090.000000	85.397912  
3089.000000	85.234378  
3088.000000	85.074661  
3087.000000	84.913847  
3086.000000	84.751701  
3085.000000	84.594774  
3084.000000	84.451421  
3083.000000	84.324462  
3082.000000	84.209719  
3081.000000	84.101620  
3080.000000	83.998754  
3079.000000	83.903728  
3078.000000	83.819391  
3077.000000	83.746028  
3076.000000	83.681029  
3075.000000	83.620954  
3074.000000	83.565426  
3073.000000	83.519448  
3072.000000	83.489703  
3071.000000	83.477169  
3070.000000	83.475044  
3069.000000	83.475467  
3068.000000	83.477069  
3067.000000	83.484075  
3066.000000	83.499068  
3065.000000	83.519179  
3064.000000	83.539813  
3063.000000	83.560683  
3062.000000	83.587490  
3061.000000	83.627952  
3060.000000	83.685577  
3059.000000	83.756425  
3058.000000	83.832189  
3057.000000	83.907066  
3056.000000	83.981413  
3055.000000	84.058556  
3054.000000	84.139469  
3053.000000	84.221776  
3052.000000	84.302699  
3051.000000	84.380917  
3050.000000	84.455698  
3049.000000	84.526328  
3048.000000	84.593491  
3047.000000	84.660135  
3046.000000	84.729282  
3045.000000	84.799937  
3044.000000	84.865048  
3043.000000	84.914793  
3042.000000	84.943855  
3041.000000	84.956311  
3040.000000	84.962326  
3039.000000	84.969127  
3038.000000	84.975796  
3037.000000	84.977034  
3036.000000	84.970368  
3035.000000	84.958025  
3034.000000	84.942677  
3033.000000	84.923649  
3032.000000	84.898218  
3031.000000	84.866110  
3030.000000	84.832311  
3029.000000	84.805033  
3028.000000	84.789750  
3027.000000	84.784233  
3026.000000	84.780165  
3025.000000	84.771081  
3024.000000	84.758796  
3023.000000	84.751198  
3022.000000	84.753703  
3021.000000	84.763513  
3020.000000	84.771901  
3019.000000	84.771598  
3018.000000	84.762591  
3017.000000	84.751905  
3016.000000	84.747727  
3015.000000	84.752903  
3014.000000	84.763739  
3013.000000	84.774810  
3012.000000	84.784304  
3011.000000	84.794643  
3010.000000	84.808757  
3009.000000	84.825907  
3008.000000	84.839772  
3007.000000	84.839793  
3006.000000	84.815409  
3005.000000	84.759985  
3004.000000	84.671543  
3003.000000	84.553242  
3002.000000	84.419445  
3001.000000	84.303020  
3000.000000	84.248728  
2999.000000	84.287939  
2998.000000	84.413923  
2997.000000	84.582303  
2996.000000	84.734579  
2995.000000	84.820773  
2994.000000	84.807115  
2993.000000	84.678653  
2992.000000	84.448457  
2991.000000	84.163843  
2990.000000	83.893879  
2989.000000	83.700019  
2988.000000	83.611457  
2987.000000	83.622913  
2986.000000	83.711099  
2985.000000	83.852681  
2984.000000	84.030606  
2983.000000	84.230630  
2982.000000	84.437879  
2981.000000	84.639098  
2980.000000	84.826931  
2979.000000	84.999493  
2978.000000	85.155807  
2977.000000	85.293866  
2976.000000	85.413759  
2975.000000	85.520568  
2974.000000	85.622769  
2973.000000	85.729490  
2972.000000	85.850060  
2971.000000	85.992648  
2970.000000	86.158572  
2969.000000	86.337786  
2968.000000	86.513439  
2967.000000	86.672871  
2966.000000	86.813881  
2965.000000	86.941371  
2964.000000	87.060403  
2963.000000	87.172032  
2962.000000	87.272325  
2961.000000	87.354039  
2960.000000	87.411656  
2959.000000	87.446545  
2958.000000	87.465355  
2957.000000	87.471451  
2956.000000	87.459257  
2955.000000	87.418878  
2954.000000	87.345905  
2953.000000	87.245690  
2952.000000	87.129292  
2951.000000	87.007078  
2950.000000	86.885510  
2949.000000	86.767405  
2948.000000	86.653529  
2947.000000	86.543574  
2946.000000	86.435834  
2945.000000	86.327379  
2944.000000	86.217211  
2943.000000	86.110320  
2942.000000	86.016353  
2941.000000	85.942004  
2940.000000	85.885967  
2939.000000	85.843197  
2938.000000	85.812422  
2937.000000	85.796198  
2936.000000	85.794677  
2935.000000	85.803728  
2934.000000	85.820165  
2933.000000	85.845235  
2932.000000	85.881434  
2931.000000	85.928697  
2930.000000	85.985338  
2929.000000	86.049726  
2928.000000	86.118585  
2927.000000	86.186204  
2926.000000	86.248817  
2925.000000	86.308974  
2924.000000	86.372632  
2923.000000	86.442364  
2922.000000	86.515913  
2921.000000	86.590586  
2920.000000	86.665517  
2919.000000	86.738852  
2918.000000	86.806181  
2917.000000	86.864625  
2916.000000	86.917548  
2915.000000	86.972977  
2914.000000	87.036849  
2913.000000	87.108599  
2912.000000	87.182749  
2911.000000	87.253319  
2910.000000	87.316500  
2909.000000	87.371021  
2908.000000	87.418228  
2907.000000	87.462014  
2906.000000	87.506938  
2905.000000	87.554790  
2904.000000	87.602921  
2903.000000	87.646356  
2902.000000	87.681564  
2901.000000	87.708092  
2900.000000	87.727544  
2899.000000	87.742053  
2898.000000	87.753092  
2897.000000	87.760958  
2896.000000	87.765138  
2895.000000	87.765814  
2894.000000	87.764555  
2893.000000	87.762778  
2892.000000	87.760194  
2891.000000	87.756182  
2890.000000	87.752341  
2889.000000	87.751925  
2888.000000	87.756527  
2887.000000	87.764678  
2886.000000	87.773873  
2885.000000	87.782466  
2884.000000	87.789647  
2883.000000	87.796079  
2882.000000	87.805584  
2881.000000	87.823736  
2880.000000	87.852478  
2879.000000	87.886934  
2878.000000	87.919372  
2877.000000	87.945801  
2876.000000	87.967515  
2875.000000	87.987212  
2874.000000	88.005634  
2873.000000	88.021911  
2872.000000	88.035517  
2871.000000	88.047136  
2870.000000	88.057784  
2869.000000	88.066890  
2868.000000	88.071441  
2867.000000	88.068651  
2866.000000	88.060563  
2865.000000	88.054383  
2864.000000	88.055977  
2863.000000	88.063223  
2862.000000	88.067283  
2861.000000	88.060182  
2860.000000	88.040430  
2859.000000	88.012812  
2858.000000	87.985441  
2857.000000	87.966330  
2856.000000	87.959093  
2855.000000	87.960010  
2854.000000	87.960673  
2853.000000	87.955014  
2852.000000	87.943266  
2851.000000	87.929028  
2850.000000	87.914010  
2849.000000	87.897109  
2848.000000	87.878023  
2847.000000	87.859973  
2846.000000	87.847552  
2845.000000	87.841403  
2844.000000	87.835419  
2843.000000	87.820706  
2842.000000	87.793742  
2841.000000	87.760331  
2840.000000	87.730167  
2839.000000	87.707206  
2838.000000	87.686498  
2837.000000	87.660458  
2836.000000	87.626265  
2835.000000	87.585648  
2834.000000	87.538999  
2833.000000	87.483134  
2832.000000	87.416464  
2831.000000	87.344320  
2830.000000	87.275865  
2829.000000	87.214650  
2828.000000	87.153992  
2827.000000	87.083510  
2826.000000	86.999542  
2825.000000	86.907886  
2824.000000	86.817023  
2823.000000	86.730867  
2822.000000	86.648196  
2821.000000	86.566798  
2820.000000	86.486893  
2819.000000	86.411503  
2818.000000	86.344151  
2817.000000	86.285253  
2816.000000	86.230911  
2815.000000	86.177276  
2814.000000	86.126575  
2813.000000	86.086305  
2812.000000	86.060945  
2811.000000	86.046671  
2810.000000	86.036167  
2809.000000	86.026885  
2808.000000	86.022238  
2807.000000	86.026359  
2806.000000	86.040768  
2805.000000	86.065401  
2804.000000	86.099426  
2803.000000	86.140272  
2802.000000	86.183959  
2801.000000	86.227210  
2800.000000	86.267858  
2799.000000	86.303105  
2798.000000	86.329284  
2797.000000	86.343982  
2796.000000	86.347329  
2795.000000	86.341215  
2794.000000	86.328797  
2793.000000	86.314423  
2792.000000	86.301182  
2791.000000	86.287279  
2790.000000	86.267160  
2789.000000	86.238315  
2788.000000	86.205631  
2787.000000	86.176812  
2786.000000	86.154375  
2785.000000	86.134671  
2784.000000	86.114661  
2783.000000	86.096636  
2782.000000	86.084603  
2781.000000	86.078247  
2780.000000	86.073731  
2779.000000	86.070306  
2778.000000	86.072856  
2777.000000	86.086000  
2776.000000	86.107668  
2775.000000	86.131281  
2774.000000	86.153556  
2773.000000	86.177006  
2772.000000	86.204057  
2771.000000	86.231775  
2770.000000	86.254839  
2769.000000	86.272274  
2768.000000	86.288467  
2767.000000	86.307530  
2766.000000	86.328828  
2765.000000	86.348702  
2764.000000	86.364798  
2763.000000	86.377081  
2762.000000	86.385317  
2761.000000	86.387572  
2760.000000	86.382177  
2759.000000	86.370315  
2758.000000	86.355334  
2757.000000	86.339570  
2756.000000	86.322983  
2755.000000	86.304810  
2754.000000	86.284582  
2753.000000	86.260726  
2752.000000	86.230731  
2751.000000	86.195455  
2750.000000	86.161777  
2749.000000	86.137251  
2748.000000	86.121618  
2747.000000	86.106532  
2746.000000	86.084390  
2745.000000	86.054748  
2744.000000	86.021265  
2743.000000	85.985504  
2742.000000	85.945770  
2741.000000	85.899496  
2740.000000	85.844432  
2739.000000	85.779584  
2738.000000	85.707799  
2737.000000	85.636172  
2736.000000	85.571039  
2735.000000	85.513070  
2734.000000	85.459152  
2733.000000	85.408226  
2732.000000	85.363241  
2731.000000	85.328484  
2730.000000	85.307622  
2729.000000	85.303658  
2728.000000	85.317612  
2727.000000	85.346503  
2726.000000	85.384797  
2725.000000	85.428885  
2724.000000	85.479147  
2723.000000	85.537495  
2722.000000	85.604577  
2721.000000	85.680032  
2720.000000	85.764176  
2719.000000	85.857964  
2718.000000	85.960885  
2717.000000	86.068879  
2716.000000	86.175021  
2715.000000	86.274125  
2714.000000	86.367928  
2713.000000	86.464458  
2712.000000	86.570107  
2711.000000	86.682524  
2710.000000	86.793375  
2709.000000	86.898558  
2708.000000	87.003694  
2707.000000	87.118334  
2706.000000	87.245817  
2705.000000	87.380103  
2704.000000	87.512001  
2703.000000	87.636921  
2702.000000	87.756288  
2701.000000	87.873079  
2700.000000	87.988029  
2699.000000	88.100568  
2698.000000	88.211364  
2697.000000	88.321612  
2696.000000	88.430077  
2695.000000	88.533405  
2694.000000	88.630739  
2693.000000	88.726449  
2692.000000	88.826466  
2691.000000	88.932524  
2690.000000	89.041514  
2689.000000	89.150105  
2688.000000	89.258238  
2687.000000	89.367698  
2686.000000	89.478745  
2685.000000	89.589298  
2684.000000	89.697120  
2683.000000	89.802002  
2682.000000	89.905508  
2681.000000	90.009010  
2680.000000	90.112505  
2679.000000	90.215123  
2678.000000	90.315499  
2677.000000	90.410815  
2676.000000	90.496768  
2675.000000	90.570306  
2674.000000	90.631913  
2673.000000	90.683275  
2672.000000	90.723056  
2671.000000	90.747520  
2670.000000	90.755596  
2669.000000	90.750419  
2668.000000	90.734777  
2667.000000	90.707938  
2666.000000	90.668891  
2665.000000	90.619976  
2664.000000	90.564555  
2663.000000	90.503094  
2662.000000	90.434834  
2661.000000	90.362478  
2660.000000	90.292305  
2659.000000	90.229983  
2658.000000	90.178398  
2657.000000	90.138745  
2656.000000	90.111021  
2655.000000	90.093612  
2654.000000	90.084717  
2653.000000	90.084261  
2652.000000	90.092743  
2651.000000	90.108660  
2650.000000	90.128634  
2649.000000	90.149115  
2648.000000	90.166006  
2647.000000	90.174034  
2646.000000	90.169688  
2645.000000	90.154586  
2644.000000	90.133310  
2643.000000	90.107836  
2642.000000	90.075885  
2641.000000	90.033664  
2640.000000	89.977317  
2639.000000	89.902484  
2638.000000	89.806270  
2637.000000	89.690375  
2636.000000	89.559629  
2635.000000	89.417021  
2634.000000	89.262415  
2633.000000	89.096031  
2632.000000	88.920711  
2631.000000	88.741073  
2630.000000	88.562928  
2629.000000	88.392499  
2628.000000	88.232470  
2627.000000	88.078972  
2626.000000	87.926248  
2625.000000	87.774737  
2624.000000	87.631295  
2623.000000	87.501180  
2622.000000	87.383073  
2621.000000	87.272081  
2620.000000	87.163762  
2619.000000	87.054666  
2618.000000	86.943195  
2617.000000	86.832041  
2616.000000	86.727086  
2615.000000	86.632028  
2614.000000	86.545501  
2613.000000	86.463387  
2612.000000	86.381235  
2611.000000	86.294186  
2610.000000	86.198054  
2609.000000	86.092462  
2608.000000	85.981725  
2607.000000	85.872844  
2606.000000	85.774507  
2605.000000	85.696230  
2604.000000	85.643159  
2603.000000	85.610165  
2602.000000	85.584705  
2601.000000	85.557503  
2600.000000	85.528465  
2599.000000	85.501964  
2598.000000	85.480264  
2597.000000	85.463471  
2596.000000	85.452651  
2595.000000	85.450093  
2594.000000	85.458041  
2593.000000	85.479008  
2592.000000	85.516231  
2591.000000	85.572664  
2590.000000	85.650512  
2589.000000	85.751720  
2588.000000	85.876612  
2587.000000	86.021313  
2586.000000	86.178869  
2585.000000	86.344177  
2584.000000	86.516080  
2583.000000	86.693737  
2582.000000	86.873029  
2581.000000	87.047790  
2580.000000	87.212779  
2579.000000	87.364681  
2578.000000	87.503179  
2577.000000	87.633281  
2576.000000	87.764018  
2575.000000	87.901107  
2574.000000	88.040796  
2573.000000	88.172574  
2572.000000	88.287350  
2571.000000	88.382094  
2570.000000	88.458984  
2569.000000	88.523946  
2568.000000	88.586151  
2567.000000	88.655374  
2566.000000	88.736950  
2565.000000	88.828701  
2564.000000	88.922977  
2563.000000	89.011955  
2562.000000	89.092047  
2561.000000	89.164866  
2560.000000	89.235297  
2559.000000	89.309079  
2558.000000	89.391022  
2557.000000	89.482502  
2556.000000	89.578320  
2555.000000	89.667780  
2554.000000	89.743362  
2553.000000	89.810081  
2552.000000	89.883323  
2551.000000	89.974086  
2550.000000	90.076541  
2549.000000	90.171799  
2548.000000	90.244110  
2547.000000	90.292822  
2546.000000	90.329720  
2545.000000	90.367112  
2544.000000	90.409074  
2543.000000	90.452072  
2542.000000	90.491009  
2541.000000	90.523294  
2540.000000	90.548510  
2539.000000	90.566938  
2538.000000	90.579409  
2537.000000	90.586950  
2536.000000	90.589350  
2535.000000	90.585631  
2534.000000	90.577810  
2533.000000	90.572884  
2532.000000	90.578174  
2531.000000	90.594092  
2530.000000	90.613087  
2529.000000	90.626474  
2528.000000	90.631872  
2527.000000	90.633925  
2526.000000	90.638061  
2525.000000	90.643369  
2524.000000	90.641856  
2523.000000	90.625661  
2522.000000	90.594554  
2521.000000	90.554547  
2520.000000	90.509915  
2519.000000	90.460382  
2518.000000	90.406832  
2517.000000	90.354870  
2516.000000	90.309425  
2515.000000	90.269206  
2514.000000	90.230072  
2513.000000	90.190748  
2512.000000	90.151089  
2511.000000	90.107639  
2510.000000	90.056634  
2509.000000	90.000900  
2508.000000	89.949513  
2507.000000	89.910983  
2506.000000	89.890118  
2505.000000	89.889850  
2504.000000	89.910843  
2503.000000	89.948796  
2502.000000	89.996602  
2501.000000	90.051239  
2500.000000	90.116869  
2499.000000	90.200433  
2498.000000	90.304613  
2497.000000	90.423552  
2496.000000	90.543965  
2495.000000	90.653018  
2494.000000	90.748559  
2493.000000	90.840273  
2492.000000	90.937901  
2491.000000	91.039902  
2490.000000	91.136783  
2489.000000	91.223557  
2488.000000	91.304682  
2487.000000	91.387823  
2486.000000	91.476795  
2485.000000	91.569618  
2484.000000	91.659324  
2483.000000	91.737296  
2482.000000	91.799671  
2481.000000	91.850041  
2480.000000	91.892979  
2479.000000	91.927441  
2478.000000	91.951083  
2477.000000	91.967772  
2476.000000	91.983038  
2475.000000	91.992975  
2474.000000	91.986360  
2473.000000	91.960229  
2472.000000	91.926832  
2471.000000	91.902458  
2470.000000	91.894996  
2469.000000	91.904814  
2468.000000	91.931537  
2467.000000	91.975066  
2466.000000	92.033267  
2465.000000	92.102848  
2464.000000	92.180984  
2463.000000	92.263725  
2462.000000	92.344527  
2461.000000	92.416692  
2460.000000	92.476966  
2459.000000	92.527057  
2458.000000	92.573363  
2457.000000	92.623993  
2456.000000	92.682031  
2455.000000	92.741138  
2454.000000	92.791382  
2453.000000	92.830457  
2452.000000	92.866708  
2451.000000	92.911229  
2450.000000	92.969715  
2449.000000	93.040321  
2448.000000	93.114101  
2447.000000	93.177861  
2446.000000	93.222867  
2445.000000	93.253139  
2444.000000	93.281283  
2443.000000	93.315122  
2442.000000	93.352329  
2441.000000	93.387681  
2440.000000	93.419122  
2439.000000	93.445158  
2438.000000	93.463229  
2437.000000	93.474912  
2436.000000	93.488354  
2435.000000	93.511242  
2434.000000	93.543354  
2433.000000	93.577813  
2432.000000	93.607249  
2431.000000	93.628129  
2430.000000	93.642830  
2429.000000	93.658726  
2428.000000	93.681590  
2427.000000	93.708770  
2426.000000	93.732175  
2425.000000	93.747870  
2424.000000	93.758157  
2423.000000	93.764457  
2422.000000	93.764743  
2421.000000	93.760092  
2420.000000	93.758084  
2419.000000	93.766541  
2418.000000	93.787162  
2417.000000	93.816022  
2416.000000	93.846095  
2415.000000	93.869828  
2414.000000	93.885819  
2413.000000	93.903612  
2412.000000	93.934460  
2411.000000	93.975986  
2410.000000	94.014692  
2409.000000	94.046626  
2408.000000	94.085541  
2407.000000	94.143536  
2406.000000	94.211729  
2405.000000	94.269373  
2404.000000	94.307663  
2403.000000	94.335716  
2402.000000	94.365275  
2401.000000	94.397825  
2400.000000	94.426731  
2399.000000	94.445879  
2398.000000	94.454802  
2397.000000	94.458348  
2396.000000	94.461865  
2395.000000	94.465615  
2394.000000	94.465681  
2393.000000	94.461390  
2392.000000	94.458180  
2391.000000	94.460905  
2390.000000	94.468217  
2389.000000	94.476722  
2388.000000	94.486701  
2387.000000	94.499552  
2386.000000	94.513200  
2385.000000	94.525543  
2384.000000	94.540992  
2383.000000	94.568493  
2382.000000	94.613074  
2381.000000	94.672933  
2380.000000	94.743859  
2379.000000	94.821203  
2378.000000	94.896334  
2377.000000	94.955956  
2376.000000	94.988970  
2375.000000	94.995307  
2374.000000	94.989166  
2373.000000	94.992635  
2372.000000	95.020102  
2371.000000	95.064966  
2370.000000	95.107182  
2369.000000	95.137637  
2368.000000	95.165155  
2367.000000	95.192972  
2366.000000	95.204619  
2365.000000	95.190681  
2364.000000	95.177032  
2363.000000	95.203152  
2362.000000	95.276648  
2361.000000	95.364496  
2360.000000	95.422132  
2359.000000	95.427159  
2358.000000	95.394664  
2357.000000	95.372205  
2356.000000	95.408241  
2355.000000	95.511019  
2354.000000	95.640629  
2353.000000	95.736070  
2352.000000	95.761391  
2351.000000	95.726568  
2350.000000	95.668656  
2349.000000	95.623965  
2348.000000	95.610930  
2347.000000	95.624824  
2346.000000	95.639035  
2345.000000	95.635342  
2344.000000	95.624111  
2343.000000	95.622702  
2342.000000	95.640082  
2341.000000	95.675478  
2340.000000	95.723942  
2339.000000	95.774795  
2338.000000	95.815613  
2337.000000	95.838725  
2336.000000	95.843337  
2335.000000	95.832554  
2334.000000	95.812685  
2333.000000	95.790767  
2332.000000	95.772166  
2331.000000	95.758923  
2330.000000	95.748696  
2329.000000	95.737201  
2328.000000	95.712876  
2327.000000	95.665432  
2326.000000	95.595053  
2325.000000	95.522066  
2324.000000	95.475428  
2323.000000	95.466839  
2322.000000	95.481050  
2321.000000	95.492894  
2320.000000	95.494345  
2319.000000	95.495350  
2318.000000	95.509639  
2317.000000	95.544189  
2316.000000	95.593958  
2315.000000	95.641662  
2314.000000	95.665169  
2313.000000	95.654719  
2312.000000	95.616718  
2311.000000	95.564061  
2310.000000	95.505865  
2309.000000	95.452372  
2308.000000	95.415063  
2307.000000	95.396021  
2306.000000	95.380092  
2305.000000	95.347557  
2304.000000	95.292705  
2303.000000	95.227445  
2302.000000	95.169753  
2301.000000	95.132110  
2300.000000	95.115091  
2299.000000	95.107368  
2298.000000	95.093432  
2297.000000	95.068737  
2296.000000	95.044416  
2295.000000	95.035852  
2294.000000	95.045865  
2293.000000	95.063963  
2292.000000	95.078163  
2291.000000	95.085676  
2290.000000	95.092510  
2289.000000	95.107227  
2288.000000	95.134922  
2287.000000	95.175482  
2286.000000	95.226353  
2285.000000	95.284582  
2284.000000	95.344664  
2283.000000	95.397731  
2282.000000	95.439734  
2281.000000	95.478561  
2280.000000	95.525268  
2279.000000	95.577881  
2278.000000	95.624582  
2277.000000	95.663455  
2276.000000	95.705458  
2275.000000	95.753104  
2274.000000	95.791655  
2273.000000	95.812117  
2272.000000	95.829589  
2271.000000	95.864515  
2270.000000	95.914437  
2269.000000	95.959233  
2268.000000	95.987855  
2267.000000	96.004188  
2266.000000	96.010109  
2265.000000	96.000684  
2264.000000	95.978238  
2263.000000	95.956578  
2262.000000	95.944714  
2261.000000	95.934904  
2260.000000	95.912858  
2259.000000	95.875726  
2258.000000	95.835965  
2257.000000	95.807901  
2256.000000	95.791878  
2255.000000	95.772143  
2254.000000	95.732499  
2253.000000	95.673987  
2252.000000	95.614199  
2251.000000	95.570358  
2250.000000	95.547730  
2249.000000	95.543018  
2248.000000	95.551082  
2247.000000	95.567907  
2246.000000	95.593782  
2245.000000	95.633904  
2244.000000	95.688621  
2243.000000	95.744802  
2242.000000	95.789000  
2241.000000	95.830016  
2240.000000	95.892940  
2239.000000	95.983956  
2238.000000	96.074323  
2237.000000	96.128470  
2236.000000	96.138506  
2235.000000	96.124133  
2234.000000	96.111770  
2233.000000	96.123717  
2232.000000	96.172825  
2231.000000	96.250878  
2230.000000	96.328656  
2229.000000	96.381752  
2228.000000	96.413851  
2227.000000	96.445030  
2226.000000	96.482397  
2225.000000	96.512612  
2224.000000	96.519547  
2223.000000	96.501139  
2222.000000	96.471696  
2221.000000	96.451788  
2220.000000	96.450600  
2219.000000	96.457220  
2218.000000	96.458148  
2217.000000	96.461565  
2216.000000	96.487809  
2215.000000	96.534461  
2214.000000	96.573474  
2213.000000	96.591752  
2212.000000	96.611349  
2211.000000	96.654060  
2210.000000	96.706907  
2209.000000	96.742195  
2208.000000	96.754703  
2207.000000	96.757618  
2206.000000	96.755971  
2205.000000	96.747426  
2204.000000	96.738481  
2203.000000	96.737096  
2202.000000	96.736844  
2201.000000	96.728119  
2200.000000	96.717196  
2199.000000	96.715151  
2198.000000	96.716875  
2197.000000	96.711654  
2196.000000	96.705825  
2195.000000	96.711976  
2194.000000	96.721734  
2193.000000	96.713155  
2192.000000	96.683381  
2191.000000	96.652641  
2190.000000	96.636349  
2189.000000	96.631818  
2188.000000	96.631015  
2187.000000	96.628310  
2186.000000	96.617592  
2185.000000	96.601460  
2184.000000	96.602334  
2183.000000	96.642865  
2182.000000	96.712290  
2181.000000	96.771767  
2180.000000	96.797772  
2179.000000	96.800956  
2178.000000	96.796518  
2177.000000	96.775145  
2176.000000	96.715133  
2175.000000	96.615105  
2174.000000	96.505319  
2173.000000	96.427266  
2172.000000	96.402939  
2171.000000	96.420381  
2170.000000	96.445997  
2169.000000	96.450211  
2168.000000	96.423084  
2167.000000	96.371008  
2166.000000	96.306944  
2165.000000	96.244185  
2164.000000	96.191183  
2163.000000	96.154258  
2162.000000	96.154649  
2161.000000	96.231311  
2160.000000	96.396398  
2159.000000	96.586947  
2158.000000	96.702855  
2157.000000	96.704139  
2156.000000	96.632464  
2155.000000	96.542044  
2154.000000	96.455235  
2153.000000	96.381173  
2152.000000	96.331941  
2151.000000	96.306084  
2150.000000	96.285016  
2149.000000	96.261958  
2148.000000	96.252677  
2147.000000	96.264455  
2146.000000	96.278309  
2145.000000	96.278381  
2144.000000	96.274810  
2143.000000	96.276019  
2142.000000	96.259453  
2141.000000	96.196763  
2140.000000	96.096869  
2139.000000	96.000176  
2138.000000	95.935453  
2137.000000	95.898852  
2136.000000	95.868383  
2135.000000	95.823312  
2134.000000	95.753458  
2133.000000	95.663378  
2132.000000	95.566135  
2131.000000	95.465766  
2130.000000	95.351226  
2129.000000	95.213276  
2128.000000	95.058819  
2127.000000	94.900284  
2126.000000	94.739006  
2125.000000	94.569170  
2124.000000	94.391980  
2123.000000	94.215426  
2122.000000	94.044168  
2121.000000	93.879727  
2120.000000	93.727889  
2119.000000	93.595246  
2118.000000	93.477273  
2117.000000	93.358178  
2116.000000	93.226908  
2115.000000	93.089819  
2114.000000	92.964692  
2113.000000	92.864628  
2112.000000	92.790902  
2111.000000	92.740817  
2110.000000	92.717612  
2109.000000	92.728221  
2108.000000	92.773155  
2107.000000	92.844375  
2106.000000	92.932976  
2105.000000	93.032005  
2104.000000	93.130452  
2103.000000	93.214626  
2102.000000	93.283947  
2101.000000	93.359297  
2100.000000	93.464451  
2099.000000	93.600510  
2098.000000	93.747525  
2097.000000	93.888231  
2096.000000	94.018801  
2095.000000	94.137934  
2094.000000	94.241128  
2093.000000	94.330333  
2092.000000	94.414590  
2091.000000	94.493580  
2090.000000	94.552346  
2089.000000	94.581799  
2088.000000	94.596034  
2087.000000	94.619211  
2086.000000	94.660290  
2085.000000	94.707763  
2084.000000	94.744831  
2083.000000	94.764222  
2082.000000	94.771701  
2081.000000	94.779540  
2080.000000	94.794228  
2079.000000	94.810382  
2078.000000	94.821249  
2077.000000	94.831027  
2076.000000	94.846500  
2075.000000	94.861273  
2074.000000	94.865677  
2073.000000	94.872742  
2072.000000	94.912257  
2071.000000	94.991734  
2070.000000	95.082666  
2069.000000	95.154989  
2068.000000	95.207757  
2067.000000	95.254304  
2066.000000	95.296568  
2065.000000	95.331795  
2064.000000	95.369384  
2063.000000	95.421310  
2062.000000	95.485108  
2061.000000	95.550939  
2060.000000	95.615029  
2059.000000	95.673093  
2058.000000	95.713738  
2057.000000	95.734874  
2056.000000	95.754558  
2055.000000	95.787902  
2054.000000	95.824229  
2053.000000	95.845978  
2052.000000	95.859392  
2051.000000	95.886206  
2050.000000	95.932833  
2049.000000	95.987278  
2048.000000	96.042108  
2047.000000	96.098853  
2046.000000	96.151252  
2045.000000	96.186797  
2044.000000	96.204918  
2043.000000	96.214940  
2042.000000	96.217828  
2041.000000	96.206126  
2040.000000	96.178346  
2039.000000	96.139481  
2038.000000	96.094996  
2037.000000	96.058187  
2036.000000	96.050800  
2035.000000	96.077965  
2034.000000	96.112975  
2033.000000	96.125234  
2032.000000	96.113712  
2031.000000	96.096796  
2030.000000	96.086051  
2029.000000	96.090651  
2028.000000	96.128267  
2027.000000	96.205743  
2026.000000	96.299757  
2025.000000	96.380868  
2024.000000	96.449354  
2023.000000	96.525242  
2022.000000	96.611510  
2021.000000	96.689921  
2020.000000	96.748805  
2019.000000	96.794560  
2018.000000	96.838102  
2017.000000	96.884633  
2016.000000	96.932384  
2015.000000	96.971888  
2014.000000	96.995166  
2013.000000	97.012396  
2012.000000	97.043341  
2011.000000	97.083837  
2010.000000	97.104708  
2009.000000	97.101689  
2008.000000	97.120673  
2007.000000	97.203077  
2006.000000	97.322879  
2005.000000	97.409998  
2004.000000	97.425146  
2003.000000	97.385311  
2002.000000	97.330266  
2001.000000	97.289988  
2000.000000	97.275080  
1999.000000	97.273431  
1998.000000	97.259007  
1997.000000	97.220499  
1996.000000	97.177885  
1995.000000	97.161500  
1994.000000	97.183230  
1993.000000	97.235404  
1992.000000	97.302626  
1991.000000	97.362030  
1990.000000	97.384533  
1989.000000	97.355102  
1988.000000	97.289218  
1987.000000	97.219115  
1986.000000	97.168534  
1985.000000	97.144915  
1984.000000	97.142812  
1983.000000	97.146078  
1982.000000	97.140821  
1981.000000	97.136001  
1980.000000	97.158706  
1979.000000	97.217825  
1978.000000	97.289153  
1977.000000	97.350098  
1976.000000	97.404988  
1975.000000	97.458814  
1974.000000	97.495258  
1973.000000	97.503172  
1972.000000	97.497851  
1971.000000	97.494140  
1970.000000	97.481031  
1969.000000	97.443964  
1968.000000	97.392279  
1967.000000	97.344242  
1966.000000	97.302585  
1965.000000	97.265518  
1964.000000	97.246016  
1963.000000	97.260854  
1962.000000	97.309796  
1961.000000	97.375000  
1960.000000	97.431738  
1959.000000	97.457876  
1958.000000	97.451556  
1957.000000	97.444118  
1956.000000	97.473341  
1955.000000	97.536375  
1954.000000	97.589203  
1953.000000	97.600755  
1952.000000	97.584157  
1951.000000	97.565808  
1950.000000	97.549376  
1949.000000	97.525621  
1948.000000	97.498018  
1947.000000	97.479658  
1946.000000	97.478571  
1945.000000	97.497524  
1944.000000	97.532911  
1943.000000	97.564835  
1942.000000	97.568967  
1941.000000	97.549991  
1940.000000	97.539564  
1939.000000	97.553882  
1938.000000	97.577829  
1937.000000	97.596539  
1936.000000	97.617445  
1935.000000	97.647060  
1934.000000	97.670501  
1933.000000	97.675600  
1932.000000	97.676527  
1931.000000	97.694725  
1930.000000	97.730729  
1929.000000	97.771048  
1928.000000	97.809937  
1927.000000	97.843353  
1926.000000	97.860878  
1925.000000	97.860007  
1924.000000	97.857286  
1923.000000	97.868543  
1922.000000	97.885623  
1921.000000	97.893636  
1920.000000	97.897255  
1919.000000	97.910151  
1918.000000	97.928141  
1917.000000	97.933197  
1916.000000	97.920456  
1915.000000	97.900430  
1914.000000	97.881471  
1913.000000	97.868166  
1912.000000	97.866347  
1911.000000	97.876741  
1910.000000	97.888265  
1909.000000	97.890294  
1908.000000	97.887462  
1907.000000	97.888129  
1906.000000	97.891041  
1905.000000	97.891356  
1904.000000	97.891211  
1903.000000	97.894527  
1902.000000	97.894502  
1901.000000	97.882156  
1900.000000	97.862298  
1899.000000	97.847921  
1898.000000	97.846439  
1897.000000	97.858142  
1896.000000	97.880065  
1895.000000	97.904803  
1894.000000	97.921998  
1893.000000	97.930984  
1892.000000	97.943254  
1891.000000	97.965274  
1890.000000	97.988107  
1889.000000	98.002884  
1888.000000	98.015162  
1887.000000	98.031894  
1886.000000	98.047223  
1885.000000	98.052920  
1884.000000	98.051791  
1883.000000	98.050510  
1882.000000	98.047642  
1881.000000	98.041297  
1880.000000	98.039674  
1879.000000	98.049456  
1878.000000	98.064661  
1877.000000	98.077370  
1876.000000	98.088831  
1875.000000	98.103519  
1874.000000	98.121173  
1873.000000	98.141431  
1872.000000	98.166763  
1871.000000	98.192574  
1870.000000	98.204921  
1869.000000	98.199988  
1868.000000	98.193931  
1867.000000	98.197054  
1866.000000	98.197864  
1865.000000	98.187354  
1864.000000	98.175443  
1863.000000	98.170416  
1862.000000	98.159841  
1861.000000	98.129755  
1860.000000	98.092017  
1859.000000	98.072160  
1858.000000	98.077277  
1857.000000	98.092343  
1856.000000	98.101006  
1855.000000	98.095726  
1854.000000	98.074632  
1853.000000	98.043004  
1852.000000	98.017073  
1851.000000	98.007514  
1850.000000	98.009568  
1849.000000	98.019113  
1848.000000	98.041539  
1847.000000	98.076897  
1846.000000	98.106450  
1845.000000	98.108999  
1844.000000	98.085385  
1843.000000	98.054801  
1842.000000	98.028950  
1841.000000	98.009180  
1840.000000	98.000974  
1839.000000	98.008681  
1838.000000	98.025597  
1837.000000	98.040734  
1836.000000	98.053244  
1835.000000	98.069221  
1834.000000	98.088824  
1833.000000	98.110289  
1832.000000	98.137832  
1831.000000	98.170599  
1830.000000	98.197232  
1829.000000	98.215255  
1828.000000	98.236407  
1827.000000	98.264151  
1826.000000	98.283668  
1825.000000	98.283421  
1824.000000	98.272953  
1823.000000	98.265350  
1822.000000	98.256438  
1821.000000	98.239999  
1820.000000	98.227746  
1819.000000	98.235830  
1818.000000	98.261462  
1817.000000	98.284705  
1816.000000	98.291715  
1815.000000	98.283859  
1814.000000	98.265965  
1813.000000	98.246097  
1812.000000	98.237522  
1811.000000	98.246747  
1810.000000	98.261871  
1809.000000	98.262129  
1808.000000	98.242480  
1807.000000	98.216305  
1806.000000	98.198435  
1805.000000	98.196707  
1804.000000	98.211744  
1803.000000	98.234417  
1802.000000	98.245467  
1801.000000	98.236092  
1800.000000	98.217909  
1799.000000	98.203166  
1798.000000	98.189640  
1797.000000	98.173068  
1796.000000	98.162560  
1795.000000	98.168041  
1794.000000	98.182982  
1793.000000	98.193468  
1792.000000	98.195201  
1791.000000	98.189425  
1790.000000	98.169549  
1789.000000	98.132371  
1788.000000	98.094701  
1787.000000	98.078263  
1786.000000	98.085207  
1785.000000	98.099761  
1784.000000	98.111970  
1783.000000	98.123135  
1782.000000	98.125650  
1781.000000	98.110971  
1780.000000	98.085479  
1779.000000	98.062117  
1778.000000	98.044695  
1777.000000	98.028274  
1776.000000	98.012596  
1775.000000	97.995326  
1774.000000	97.967358  
1773.000000	97.928348  
1772.000000	97.896134  
1771.000000	97.880609  
1770.000000	97.861838  
1769.000000	97.817055  
1768.000000	97.752245  
1767.000000	97.690054  
1766.000000	97.637253  
1765.000000	97.585179  
1764.000000	97.530043  
1763.000000	97.477486  
1762.000000	97.429724  
1761.000000	97.387414  
1760.000000	97.353939  
1759.000000	97.325972  
1758.000000	97.286318  
1757.000000	97.224068  
1756.000000	97.158915  
1755.000000	97.114282  
1754.000000	97.087788  
1753.000000	97.066850  
1752.000000	97.054507  
1751.000000	97.056939  
1750.000000	97.061999  
1749.000000	97.050636  
1748.000000	97.025727  
1747.000000	97.004543  
1746.000000	96.992007  
1745.000000	96.989848  
1744.000000	97.006607  
1743.000000	97.045981  
1742.000000	97.093921  
1741.000000	97.132137  
1740.000000	97.163558  
1739.000000	97.209763  
1738.000000	97.280295  
1737.000000	97.370461  
1736.000000	97.492693  
1735.000000	97.675695  
1734.000000	97.893198  
1733.000000	98.073376  
1732.000000	98.201543  
1731.000000	98.306290  
1730.000000	98.400737  
1729.000000	98.488758  
1728.000000	98.583202  
1727.000000	98.695701  
1726.000000	98.819142  
1725.000000	98.936576  
1724.000000	99.032045  
1723.000000	99.099107  
1722.000000	99.140695  
1721.000000	99.162779  
1720.000000	99.172498  
1719.000000	99.170672  
1718.000000	99.147295  
1717.000000	99.101943  
1716.000000	99.057299  
1715.000000	99.024302  
1714.000000	98.986225  
1713.000000	98.930741  
1712.000000	98.871068  
1711.000000	98.825954  
1710.000000	98.794673  
1709.000000	98.770455  
1708.000000	98.759457  
1707.000000	98.761858  
1706.000000	98.757534  
1705.000000	98.732338  
1704.000000	98.702363  
1703.000000	98.683418  
1702.000000	98.670303  
1701.000000	98.658945  
1700.000000	98.651873  
1699.000000	98.648582  
1698.000000	98.625247  
1697.000000	98.550468  
1696.000000	98.442888  
1695.000000	98.363233  
1694.000000	98.331353  
1693.000000	98.316462  
1692.000000	98.295459  
1691.000000	98.272472  
1690.000000	98.253565  
1689.000000	98.232319  
1688.000000	98.210111  
1687.000000	98.191033  
1686.000000	98.176762  
1685.000000	98.165116  
1684.000000	98.157090  
1683.000000	98.157479  
1682.000000	98.136775  
1681.000000	98.069688  
1680.000000	97.982279  
1679.000000	97.913858  
1678.000000	97.868687  
1677.000000	97.825027  
1676.000000	97.780923  
1675.000000	97.753323  
1674.000000	97.738006  
1673.000000	97.720900  
1672.000000	97.703432  
1671.000000	97.692040  
1670.000000	97.669179  
1669.000000	97.609226  
1668.000000	97.529155  
1667.000000	97.460641  
1666.000000	97.399827  
1665.000000	97.322080  
1664.000000	97.218002  
1663.000000	97.095620  
1662.000000	96.948200  
1661.000000	96.761343  
1660.000000	96.540891  
1659.000000	96.301120  
1658.000000	96.042383  
1657.000000	95.764976  
1656.000000	95.453033  
1655.000000	95.038917  
1654.000000	94.354353  
1653.000000	93.369757  
1652.000000	92.444527  
1651.000000	91.820950  
1650.000000	91.363932  
1649.000000	90.884945  
1648.000000	90.324403  
1647.000000	89.777548  
1646.000000	89.357424  
1645.000000	89.071176  
1644.000000	88.885731  
1643.000000	88.779662  
1642.000000	88.700082  
1641.000000	88.583372  
1640.000000	88.418996  
1639.000000	88.222482  
1638.000000	87.942575  
1637.000000	87.438774  
1636.000000	86.633256  
1635.000000	85.664874  
1634.000000	84.705505  
1633.000000	83.746304  
1632.000000	82.715780  
1631.000000	81.586248  
1630.000000	80.322727  
1629.000000	78.873940  
1628.000000	77.281158  
1627.000000	75.697736  
1626.000000	74.192528  
1625.000000	72.660236  
1624.000000	71.008355  
1623.000000	69.365751  
1622.000000	67.966120  
1621.000000	66.873151  
1620.000000	65.996893  
1619.000000	65.251054  
1618.000000	64.574664  
1617.000000	63.929196  
1616.000000	63.380496  
1615.000000	63.051576  
1614.000000	62.949637  
1613.000000	62.993072  
1612.000000	63.166872  
1611.000000	63.544054  
1610.000000	64.147552  
1609.000000	64.865230  
1608.000000	65.542860  
1607.000000	66.078070  
1606.000000	66.394986  
1605.000000	66.421902  
1604.000000	66.139607  
1603.000000	65.606009  
1602.000000	64.897620  
1601.000000	64.054389  
1600.000000	63.117192  
1599.000000	62.165769  
1598.000000	61.261983  
1597.000000	60.398582  
1596.000000	59.555584  
1595.000000	58.760941  
1594.000000	58.037123  
1593.000000	57.342130  
1592.000000	56.629226  
1591.000000	55.914561  
1590.000000	55.231125  
1589.000000	54.574554  
1588.000000	53.957859  
1587.000000	53.466172  
1586.000000	53.185663  
1585.000000	53.119843  
1584.000000	53.241703  
1583.000000	53.567144  
1582.000000	54.103556  
1581.000000	54.777473  
1580.000000	55.497175  
1579.000000	56.253425  
1578.000000	57.104717  
1577.000000	58.082274  
1576.000000	59.125475  
1575.000000	60.136513  
1574.000000	61.065224  
1573.000000	61.911682  
1572.000000	62.714367  
1571.000000	63.545956  
1570.000000	64.429167  
1569.000000	65.265771  
1568.000000	65.965282  
1567.000000	66.567190  
1566.000000	67.161147  
1565.000000	67.773625  
1564.000000	68.375331  
1563.000000	68.948421  
1562.000000	69.523022  
1561.000000	70.159584  
1560.000000	70.938240  
1559.000000	71.819766  
1558.000000	72.604742  
1557.000000	73.193494  
1556.000000	73.661698  
1555.000000	74.104696  
1554.000000	74.557336  
1553.000000	74.997442  
1552.000000	75.396384  
1551.000000	75.760943  
1550.000000	76.113408  
1549.000000	76.450755  
1548.000000	76.764829  
1547.000000	77.084890  
1546.000000	77.460515  
1545.000000	77.908529  
1544.000000	78.399394  
1543.000000	78.908988  
1542.000000	79.456948  
1541.000000	80.070318  
1540.000000	80.725286  
1539.000000	81.351359  
1538.000000	81.901498  
1537.000000	82.387224  
1536.000000	82.841291  
1535.000000	83.294227  
1534.000000	83.741655  
1533.000000	84.120880  
1532.000000	84.378282  
1531.000000	84.523253  
1530.000000	84.583510  
1529.000000	84.555423  
1528.000000	84.405072  
1527.000000	84.095052  
1526.000000	83.625132  
1525.000000	83.045844  
1524.000000	82.393835  
1523.000000	81.638995  
1522.000000	80.776944  
1521.000000	79.977773  
1520.000000	79.461273  
1519.000000	79.257149  
1518.000000	79.276283  
1517.000000	79.451242  
1516.000000	79.723375  
1515.000000	80.025625  
1514.000000	80.308785  
1513.000000	80.542408  
1512.000000	80.692272  
1511.000000	80.744107  
1510.000000	80.714412  
1509.000000	80.616596  
1508.000000	80.443060  
1507.000000	80.232800  
1506.000000	80.121527  
1505.000000	80.197748  
1504.000000	80.439036  
1503.000000	80.799454  
1502.000000	81.250292  
1501.000000	81.776338  
1500.000000	82.354245  
1499.000000	82.957978  
1498.000000	83.583914  
1497.000000	84.236017  
1496.000000	84.889034  
1495.000000	85.508482  
1494.000000	86.086942  
1493.000000	86.641198  
1492.000000	87.201832  
1491.000000	87.796439  
1490.000000	88.402294  
1489.000000	88.945101  
1488.000000	89.382191  
1487.000000	89.742050  
1486.000000	90.061286  
1485.000000	90.339910  
1484.000000	90.578860  
1483.000000	90.799828  
1482.000000	91.019370  
1481.000000	91.227901  
1480.000000	91.413929  
1479.000000	91.586904  
1478.000000	91.751976  
1477.000000	91.890604  
1476.000000	91.984013  
1475.000000	92.030136  
1474.000000	92.003756  
1473.000000	91.849454  
1472.000000	91.557105  
1471.000000	91.174844  
1470.000000	90.714452  
1469.000000	90.133416  
1468.000000	89.390093  
1467.000000	88.451690  
1466.000000	87.291732  
1465.000000	85.997853  
1464.000000	84.837230  
1463.000000	84.022775  
1462.000000	83.495810  
1461.000000	83.025853  
1460.000000	82.346942  
1459.000000	81.172135  
1458.000000	79.234840  
1457.000000	76.744665  
1456.000000	74.601924  
1455.000000	73.475044  
1454.000000	73.334317  
1453.000000	73.968739  
1452.000000	75.187766  
1451.000000	76.736790  
1450.000000	78.356610  
1449.000000	79.888112  
1448.000000	81.234955  
1447.000000	82.332618  
1446.000000	83.209661  
1445.000000	83.981736  
1444.000000	84.762748  
1443.000000	85.616090  
1442.000000	86.551272  
1441.000000	87.512599  
1440.000000	88.411090  
1439.000000	89.201010  
1438.000000	89.905487  
1437.000000	90.521721  
1436.000000	90.965558  
1435.000000	91.205621  
1434.000000	91.324957  
1433.000000	91.394654  
1432.000000	91.416883  
1431.000000	91.376596  
1430.000000	91.277424  
1429.000000	91.118068  
1428.000000	90.880956  
1427.000000	90.561092  
1426.000000	90.148405  
1425.000000	89.598897  
1424.000000	88.878412  
1423.000000	88.013415  
1422.000000	86.998939  
1421.000000	85.674597  
1420.000000	83.795966  
1419.000000	81.340534  
1418.000000	78.617408  
1417.000000	75.887951  
1416.000000	73.198076  
1415.000000	70.599807  
1414.000000	68.236675  
1413.000000	66.297744  
1412.000000	65.010371  
1411.000000	64.577127  
1410.000000	65.025055  
1409.000000	66.200856  
1408.000000	67.927780  
1407.000000	70.069525  
1406.000000	72.472984  
1405.000000	74.944126  
1404.000000	77.282267  
1403.000000	79.349346  
1402.000000	81.137982  
1401.000000	82.745863  
1400.000000	84.258419  
1399.000000	85.651956  
1398.000000	86.848154  
1397.000000	87.841233  
1396.000000	88.696493  
1395.000000	89.458070  
1394.000000	90.113093  
1393.000000	90.640171  
1392.000000	91.051642  
1391.000000	91.384326  
1390.000000	91.676555  
1389.000000	91.946735  
1388.000000	92.179763  
1387.000000	92.346590  
1386.000000	92.438653  
1385.000000	92.462868  
1384.000000	92.408526  
1383.000000	92.235246  
1382.000000	91.884796  
1381.000000	91.311088  
1380.000000	90.549305  
1379.000000	89.772743  
1378.000000	89.208200  
1377.000000	88.935549  
1376.000000	88.804514  
1375.000000	88.560216  
1374.000000	88.025948  
1373.000000	87.162678  
1372.000000	85.974267  
1371.000000	84.422935  
1370.000000	82.448372  
1369.000000	80.037465  
1368.000000	77.284887  
1367.000000	74.380403  
1366.000000	71.503999  
1365.000000	68.749451  
1364.000000	66.195653  
1363.000000	64.040706  
1362.000000	62.558402  
1361.000000	61.862933  
1360.000000	61.819138  
1359.000000	62.202943  
1358.000000	62.868113  
1357.000000	63.789144  
1356.000000	65.006524  
1355.000000	66.531819  
1354.000000	68.290350  
1353.000000	70.153356  
1352.000000	72.011963  
1351.000000	73.806014  
1350.000000	75.499648  
1349.000000	77.064026  
1348.000000	78.486020  
1347.000000	79.775195  
1346.000000	80.953079  
1345.000000	82.035885  
1344.000000	83.027744  
1343.000000	83.929050  
1342.000000	84.749221  
1341.000000	85.506074  
1340.000000	86.210365  
1339.000000	86.856661  
1338.000000	87.436443  
1337.000000	87.954663  
1336.000000	88.426422  
1335.000000	88.865081  
1334.000000	89.279314  
1333.000000	89.673625  
1332.000000	90.044793  
1331.000000	90.382952  
1330.000000	90.681640  
1329.000000	90.943154  
1328.000000	91.170826  
1327.000000	91.361709  
1326.000000	91.508615  
1325.000000	91.603551  
1324.000000	91.636287  
1323.000000	91.594952  
1322.000000	91.469446  
1321.000000	91.247495  
1320.000000	90.906202  
1319.000000	90.413145  
1318.000000	89.734518  
1317.000000	88.831141  
1316.000000	87.641373  
1315.000000	86.074002  
1314.000000	84.030009  
1313.000000	81.452379  
1312.000000	78.379894  
1311.000000	74.965853  
1310.000000	71.451076  
1309.000000	68.131250  
1308.000000	65.335417  
1307.000000	63.365730  
1306.000000	62.393687  
1305.000000	62.408142  
1304.000000	63.254135  
1303.000000	64.692113  
1302.000000	66.447665  
1301.000000	68.280336  
1300.000000	70.045676  
1299.000000	71.695062  
1298.000000	73.226400  
1297.000000	74.645559  
1296.000000	75.960595  
1295.000000	77.183615  
1294.000000	78.322949  
1293.000000	79.376915  
1292.000000	80.340233  
1291.000000	81.215094  
1290.000000	82.012902  
1289.000000	82.745550  
1288.000000	83.418790  
1287.000000	84.036221  
1286.000000	84.605944  
1285.000000	85.138296  
1284.000000	85.638822  
1283.000000	86.108872  
1282.000000	86.552698  
1281.000000	86.978154  
1280.000000	87.389268  
1279.000000	87.782351  
1278.000000	88.151242  
1277.000000	88.493913  
1276.000000	88.814079  
1275.000000	89.119443  
1274.000000	89.417554  
1273.000000	89.710039  
1272.000000	89.991791  
1271.000000	90.257894  
1270.000000	90.507939  
1269.000000	90.740634  
1268.000000	90.950668  
1267.000000	91.137586  
1266.000000	91.312302  
1265.000000	91.486260  
1264.000000	91.658423  
1263.000000	91.821204  
1262.000000	91.974175  
1261.000000	92.121669  
1260.000000	92.261089  
1259.000000	92.385160  
1258.000000	92.494292  
1257.000000	92.596286  
1256.000000	92.694949  
1255.000000	92.787701  
1254.000000	92.871822  
1253.000000	92.943640  
1252.000000	92.993602  
1251.000000	93.011449  
1250.000000	92.994057  
1249.000000	92.938748  
1248.000000	92.831328  
1247.000000	92.648820  
1246.000000	92.367570  
1245.000000	91.953947  
1244.000000	91.347349  
1243.000000	90.465251  
1242.000000	89.233690  
1241.000000	87.628424  
1240.000000	85.724898  
1239.000000	83.738693  
1238.000000	81.998116  
1237.000000	80.831172  
1236.000000	80.436816  
1235.000000	80.814811  
1234.000000	81.785429  
1233.000000	83.087915  
1232.000000	84.489881  
1231.000000	85.841588  
1230.000000	87.074019  
1229.000000	88.170988  
1228.000000	89.137424  
1227.000000	89.981340  
1226.000000	90.714616  
1225.000000	91.356321  
1224.000000	91.924028  
1223.000000	92.420580  
1222.000000	92.831313  
1221.000000	93.136816  
1220.000000	93.337583  
1219.000000	93.474904  
1218.000000	93.620073  
1217.000000	93.828565  
1216.000000	94.103711  
1215.000000	94.408854  
1214.000000	94.705964  
1213.000000	94.972787  
1212.000000	95.194761  
1211.000000	95.364725  
1210.000000	95.493466  
1209.000000	95.603257  
1208.000000	95.707414  
1207.000000	95.807623  
1206.000000	95.908648  
1205.000000	96.019450  
1204.000000	96.139577  
1203.000000	96.260094  
1202.000000	96.379522  
1201.000000	96.504241  
1200.000000	96.632206  
1199.000000	96.752633  
1198.000000	96.865649  
1197.000000	96.987254  
1196.000000	97.129244  
1195.000000	97.285755  
1194.000000	97.443006  
1193.000000	97.591084  
1192.000000	97.724008  
1191.000000	97.841405  
1190.000000	97.953755  
1189.000000	98.073287  
1188.000000	98.195586  
1187.000000	98.301851  
1186.000000	98.383356  
1185.000000	98.452453  
1184.000000	98.525641  
1183.000000	98.606669  
1182.000000	98.689303  
1181.000000	98.765796  
1180.000000	98.829245  
1179.000000	98.878111  
1178.000000	98.921987  
1177.000000	98.972997  
1176.000000	99.028077  
1175.000000	99.068121  
1174.000000	99.077002  
1173.000000	99.053790  
1172.000000	99.006252  
1171.000000	98.942927  
1170.000000	98.873259  
1169.000000	98.805164  
1168.000000	98.738152  
1167.000000	98.663465  
1166.000000	98.570615  
1165.000000	98.448623  
1164.000000	98.283709  
1163.000000	98.062636  
1162.000000	97.773869  
1161.000000	97.395623  
1160.000000	96.885910  
1159.000000	96.195592  
1158.000000	95.293856  
1157.000000	94.183009  
1156.000000	92.907611  
1155.000000	91.569270  
1154.000000	90.325951  
1153.000000	89.353766  
1152.000000	88.787274  
1151.000000	88.670169  
1150.000000	88.945047  
1149.000000	89.496264  
1148.000000	90.213421  
1147.000000	91.020795  
1146.000000	91.862828  
1145.000000	92.683756  
1144.000000	93.431809  
1143.000000	94.078808  
1142.000000	94.626333  
1141.000000	95.089197  
1140.000000	95.478874  
1139.000000	95.805824  
1138.000000	96.085954  
1137.000000	96.331846  
1136.000000	96.541729  
1135.000000	96.707913  
1134.000000	96.833776  
1133.000000	96.933017  
1132.000000	97.014471  
1131.000000	97.076903  
1130.000000	97.117132  
1129.000000	97.134055  
1128.000000	97.122829  
1127.000000	97.069046  
1126.000000	96.947667  
1125.000000	96.725029  
1124.000000	96.364143  
1123.000000	95.825867  
1122.000000	95.048878  
1121.000000	93.912582  
1120.000000	92.226421  
1119.000000	89.792439  
1118.000000	86.542979  
1117.000000	82.694209  
1116.000000	78.806421  
1115.000000	75.630231  
1114.000000	73.758163  
1113.000000	73.351677  
1112.000000	74.181138  
1111.000000	75.867073  
1110.000000	78.060044  
1109.000000	80.474514  
1108.000000	82.866344  
1107.000000	85.043198  
1106.000000	86.900393  
1105.000000	88.422365  
1104.000000	89.641470  
1103.000000	90.602267  
1102.000000	91.351362  
1101.000000	91.934158  
1100.000000	92.395947  
1099.000000	92.789248  
1098.000000	93.164201  
1097.000000	93.536733  
1096.000000	93.881197  
1095.000000	94.172372  
1094.000000	94.422197  
1093.000000	94.658507  
1092.000000	94.884479  
1091.000000	95.083348  
1090.000000	95.251303  
1089.000000	95.400309  
1088.000000	95.535809  
1087.000000	95.654874  
1086.000000	95.760483  
1085.000000	95.857525  
1084.000000	95.942733  
1083.000000	96.018810  
1082.000000	96.107991  
1081.000000	96.227117  
1080.000000	96.356683  
1079.000000	96.459876  
1078.000000	96.528929  
1077.000000	96.589784  
1076.000000	96.665239  
1075.000000	96.757649  
1074.000000	96.864158  
1073.000000	96.982265  
1072.000000	97.097731  
1071.000000	97.189241  
1070.000000	97.250520  
1069.000000	97.293604  
1068.000000	97.331430  
1067.000000	97.372108  
1066.000000	97.424765  
1065.000000	97.491439  
1064.000000	97.555813  
1063.000000	97.598699  
1062.000000	97.623759  
1061.000000	97.652193  
1060.000000	97.695838  
1059.000000	97.751568  
1058.000000	97.815932  
1057.000000	97.885780  
1056.000000	97.947974  
1055.000000	97.988680  
1054.000000	98.013326  
1053.000000	98.041706  
1052.000000	98.086207  
1051.000000	98.152502  
1050.000000	98.256709  
1049.000000	98.417882  
1048.000000	98.633625  
1047.000000	98.884057  
1046.000000	99.158561  
1045.000000	99.459812  
1044.000000	99.783686  
1043.000000	100.112194 
1042.000000	100.424120 
1041.000000	100.698019 
1040.000000	100.910828 
1039.000000	101.052969 
1038.000000	101.140500 
1037.000000	101.192739 
1036.000000	101.204118 
1035.000000	101.158368 
1034.000000	101.060860 
1033.000000	100.931421 
1032.000000	100.772299 
1031.000000	100.568991 
1030.000000	100.315576 
1029.000000	100.011121 
1028.000000	99.633732  
1027.000000	99.139736  
1026.000000	98.475891  
1025.000000	97.562275  
1024.000000	96.283671  
1023.000000	94.565043  
1022.000000	92.486764  
1021.000000	90.287919  
1020.000000	88.202354  
1019.000000	86.260746  
1018.000000	84.257335  
1017.000000	81.956109  
1016.000000	79.387376  
1015.000000	76.971763  
1014.000000	75.333922  
1013.000000	74.944461  
1012.000000	75.874147  
1011.000000	77.804994  
1010.000000	80.235867  
1009.000000	82.719118  
1008.000000	84.981161  
1007.000000	86.910572  
1006.000000	88.498362  
1005.000000	89.785805  
1004.000000	90.825461  
1003.000000	91.662672  
1002.000000	92.340186  
1001.000000	92.902234  
1000.000000	93.382305  
999.000000	 93.793638  
998.000000	 94.139286  
997.000000	 94.425987  
996.000000	 94.663893  
995.000000	 94.861652  
994.000000	 95.028626  
993.000000	 95.175303  
992.000000	 95.306091  
991.000000	 95.418063  
990.000000	 95.511459  
989.000000	 95.594480  
988.000000	 95.672409  
987.000000	 95.738652  
986.000000	 95.783548  
985.000000	 95.808828  
984.000000	 95.828445  
983.000000	 95.856908  
982.000000	 95.898940  
981.000000	 95.948033  
980.000000	 95.993542  
979.000000	 96.031444  
978.000000	 96.068798  
977.000000	 96.115707  
976.000000	 96.174492  
975.000000	 96.240413  
974.000000	 96.310867  
973.000000	 96.387770  
972.000000	 96.470528  
971.000000	 96.551368  
970.000000	 96.618437  
969.000000	 96.661327  
968.000000	 96.676497  
967.000000	 96.671974  
966.000000	 96.663099  
965.000000	 96.656848  
964.000000	 96.643143  
963.000000	 96.608676  
962.000000	 96.556518  
961.000000	 96.503824  
960.000000	 96.461836  
959.000000	 96.426115  
958.000000	 96.384838  
957.000000	 96.328129  
956.000000	 96.249876  
955.000000	 96.150167  
954.000000	 96.038660  
953.000000	 95.928693  
952.000000	 95.825640  
951.000000	 95.725521  
950.000000	 95.625712  
949.000000	 95.532433  
948.000000	 95.456708  
947.000000	 95.406270  
946.000000	 95.381810  
945.000000	 95.378254  
944.000000	 95.389037  
943.000000	 95.409950  
942.000000	 95.437689  
941.000000	 95.464567  
940.000000	 95.479606  
939.000000	 95.479268  
938.000000	 95.474321  
937.000000	 95.480737  
936.000000	 95.503450  
935.000000	 95.529972  
934.000000	 95.536956  
933.000000	 95.501813  
932.000000	 95.413535  
931.000000	 95.277056  
930.000000	 95.102928  
929.000000	 94.886266  
928.000000	 94.594826  
927.000000	 94.175292  
926.000000	 93.562724  
925.000000	 92.681600  
924.000000	 91.454161  
923.000000	 89.838932  
922.000000	 87.896786  
921.000000	 85.853012  
920.000000	 84.100882  
919.000000	 83.084803  
918.000000	 83.081498  
917.000000	 84.038875  
916.000000	 85.619186  
915.000000	 87.401899  
914.000000	 89.077162  
913.000000	 90.508384  
912.000000	 91.678445  
911.000000	 92.618870  
910.000000	 93.376299  
909.000000	 93.995285  
908.000000	 94.502086  
907.000000	 94.907692  
906.000000	 95.227629  
905.000000	 95.486127  
904.000000	 95.699262  
903.000000	 95.867425  
902.000000	 95.988568  
901.000000	 96.070202  
900.000000	 96.127118  
899.000000	 96.174579  
898.000000	 96.221669  
897.000000	 96.264015  
896.000000	 96.288166  
895.000000	 96.292203  
894.000000	 96.295787  
893.000000	 96.318636  
892.000000	 96.355790  
891.000000	 96.387413  
890.000000	 96.406846  
889.000000	 96.423190  
888.000000	 96.440538  
887.000000	 96.452624  
886.000000	 96.457644  
885.000000	 96.462288  
884.000000	 96.470753  
883.000000	 96.485049  
882.000000	 96.515889  
881.000000	 96.575237  
880.000000	 96.654084  
879.000000	 96.723987  
878.000000	 96.767897  
877.000000	 96.797175  
876.000000	 96.831964  
875.000000	 96.875984  
874.000000	 96.915576  
873.000000	 96.932926  
872.000000	 96.915963  
871.000000	 96.865656  
870.000000	 96.798422  
869.000000	 96.733761  
868.000000	 96.676942  
867.000000	 96.618350  
866.000000	 96.546170  
865.000000	 96.450349  
864.000000	 96.316450  
863.000000	 96.126554  
862.000000	 95.864975  
861.000000	 95.510041  
860.000000	 95.016124  
859.000000	 94.309346  
858.000000	 93.295554  
857.000000	 91.858201  
856.000000	 89.857643  
855.000000	 87.180093  
854.000000	 83.847570  
853.000000	 80.120600  
852.000000	 76.496423  
851.000000	 73.556094  
850.000000	 71.732458  
849.000000	 71.176490  
848.000000	 71.808930  
847.000000	 73.432074  
846.000000	 75.766489  
845.000000	 78.451407  
844.000000	 81.106847  
843.000000	 83.452159  
842.000000	 85.383748  
841.000000	 86.940618  
840.000000	 88.202630  
839.000000	 89.227969  
838.000000	 90.059657  
837.000000	 90.742817  
836.000000	 91.316079  
835.000000	 91.802452  
834.000000	 92.218377  
833.000000	 92.579937  
832.000000	 92.895143  
831.000000	 93.163296  
830.000000	 93.389533  
829.000000	 93.591365  
828.000000	 93.786349  
827.000000	 93.981076  
826.000000	 94.173323  
825.000000	 94.355631  
824.000000	 94.517714  
823.000000	 94.657449  
822.000000	 94.787841  
821.000000	 94.920434  
820.000000	 95.046136  
819.000000	 95.146062  
818.000000	 95.216637  
817.000000	 95.269656  
816.000000	 95.311493  
815.000000	 95.338630  
814.000000	 95.353228  
813.000000	 95.367365  
812.000000	 95.389266  
811.000000	 95.417671  
810.000000	 95.451569  
809.000000	 95.494344  
808.000000	 95.547591  
807.000000	 95.611630  
806.000000	 95.690753  
805.000000	 95.785234  
804.000000	 95.880208  
803.000000	 95.958391  
802.000000	 96.023613  
801.000000	 96.093349  
800.000000	 96.164885  
799.000000	 96.208793  
798.000000	 96.205503  
797.000000	 96.172667  
796.000000	 96.144132  
795.000000	 96.132181  
794.000000	 96.120225  
793.000000	 96.084582  
792.000000	 96.014046  
791.000000	 95.913169  
790.000000	 95.794956  
789.000000	 95.669093  
788.000000	 95.532429  
787.000000	 95.369372  
786.000000	 95.159819  
785.000000	 94.885197  
784.000000	 94.530754  
783.000000	 94.086499  
782.000000	 93.541452  
781.000000	 92.870556  
780.000000	 92.031748  
779.000000	 90.984482  
778.000000	 89.712555  
777.000000	 88.232854  
776.000000	 86.599441  
775.000000	 84.915170  
774.000000	 83.338369  
773.000000	 82.071892  
772.000000	 81.334008  
771.000000	 81.299410  
770.000000	 82.013159  
769.000000	 83.339205  
768.000000	 85.006117  
767.000000	 86.727593  
766.000000	 88.309164  
765.000000	 89.671325  
764.000000	 90.803596  
763.000000	 91.722417  
762.000000	 92.464103  
761.000000	 93.077130  
760.000000	 93.593837  
759.000000	 94.016173  
758.000000	 94.338756  
757.000000	 94.576989  
756.000000	 94.764369  
755.000000	 94.929730  
754.000000	 95.084273  
753.000000	 95.226857  
752.000000	 95.357966  
751.000000	 95.489451  
750.000000	 95.637403  
749.000000	 95.801478  
748.000000	 95.958492  
747.000000	 96.086745  
746.000000	 96.191335  
745.000000	 96.292094  
744.000000	 96.390721  
743.000000	 96.466921  
742.000000	 96.508496  
741.000000	 96.530612  
740.000000	 96.561027  
739.000000	 96.616241  
738.000000	 96.692967  
737.000000	 96.772829  
736.000000	 96.835707  
735.000000	 96.879106  
734.000000	 96.923657  
733.000000	 96.988951  
732.000000	 97.066587  
731.000000	 97.130175  
730.000000	 97.169183  
729.000000	 97.197208  
728.000000	 97.229793  
727.000000	 97.270603  
726.000000	 97.318469  
725.000000	 97.371293  
724.000000	 97.418035  
723.000000	 97.440512  
722.000000	 97.431642  
721.000000	 97.407109  
720.000000	 97.391972  
719.000000	 97.393733  
718.000000	 97.395894  
717.000000	 97.380773  
716.000000	 97.351939  
715.000000	 97.332541  
714.000000	 97.337561  
713.000000	 97.348067  
712.000000	 97.327733  
711.000000	 97.268876  
710.000000	 97.205995  
709.000000	 97.173336  
708.000000	 97.164912  
707.000000	 97.150808  
706.000000	 97.117134  
705.000000	 97.074726  
704.000000	 97.039589  
703.000000	 97.020402  
702.000000	 97.019295  
701.000000	 97.027429  
700.000000	 97.024817  
699.000000	 97.003425  
698.000000	 96.981473  
697.000000	 96.979540  
696.000000	 96.991890  
695.000000	 96.997879  
694.000000	 96.997015  
693.000000	 97.008056  
692.000000	 97.035803  
691.000000	 97.064771  
690.000000	 97.083296  
689.000000	 97.095353  
688.000000	 97.106775  
687.000000	 97.116056  
686.000000	 97.123353  
685.000000	 97.133123  
684.000000	 97.149780  
683.000000	 97.180904  
682.000000	 97.227673  
681.000000	 97.261754  
680.000000	 97.238366  
679.000000	 97.160389  
678.000000	 97.095331  
677.000000	 97.093780  
676.000000	 97.126193  
675.000000	 97.121940  
674.000000	 97.068764  
673.000000	 97.023988  
672.000000	 97.028585  
671.000000	 97.067851  
670.000000	 97.115409  
669.000000	 97.165292  
668.000000	 97.122685  
667.000000	 96.855940  
666.000000	 96.529098  
665.000000	 96.277360  
664.000000	 96.021047  
663.000000	 95.678502  
662.000000	 95.228722  
661.000000	 94.674020  
660.000000	 93.988121  
659.000000	 93.129355  
658.000000	 92.076765  
657.000000	 90.815234  
656.000000	 89.317875  
655.000000	 87.576593  
654.000000	 85.632022  
653.000000	 83.604480  
652.000000	 81.679124  
651.000000	 80.081562  
650.000000	 78.857440  

