PE IR                   SPECTRUM    ASCII       PEDS        1.60        
  -1
~SP.SP
18/03/23
17:03:13.00
18/03/23
17:03:13.00
pili
Irradiada
650.000000
4









SPECTRUM 100,CPU32 MAIN 00.02.8200 12-DECEMBER-2006 10:00:00
MIR TGS
MIR
OPTKBR
78890
0.200000

4.000000
STRONG
RATIO
SPECTRUM
MAGNITUDE
UNIVERSAL ATR
DOUBLE

COMBINED


0


#HDR
-1
-1
#GR
CM-1
%T
0.00002384185791015625
0.0
4000.000000
-1.000000
3351
8
98.262669
29.372237
#DATA
4000.000000	97.962166 
3999.000000	97.963751 
3998.000000	97.971326 
3997.000000	97.983458 
3996.000000	97.996950 
3995.000000	98.009640 
3994.000000	98.021804 
3993.000000	98.034752 
3992.000000	98.047883 
3991.000000	98.057638 
3990.000000	98.060010 
3989.000000	98.054035 
3988.000000	98.042284 
3987.000000	98.027902 
3986.000000	98.012285 
3985.000000	97.996264 
3984.000000	97.982382 
3983.000000	97.974117 
3982.000000	97.972583 
3981.000000	97.975343 
3980.000000	97.979238 
3979.000000	97.983427 
3978.000000	97.988788 
3977.000000	97.995281 
3976.000000	98.001268 
3975.000000	98.005336 
3974.000000	98.007384 
3973.000000	98.007624 
3972.000000	98.005870 
3971.000000	98.002970 
3970.000000	98.002320 
3969.000000	98.008231 
3968.000000	98.021821 
3967.000000	98.038892 
3966.000000	98.052373 
3965.000000	98.057180 
3964.000000	98.052840 
3963.000000	98.042175 
3962.000000	98.028504 
3961.000000	98.014630 
3960.000000	98.003654 
3959.000000	97.998840 
3958.000000	98.001705 
3957.000000	98.010615 
3956.000000	98.021918 
3955.000000	98.032476 
3954.000000	98.040854 
3953.000000	98.046723 
3952.000000	98.050118 
3951.000000	98.051590 
3950.000000	98.052402 
3949.000000	98.053876 
3948.000000	98.056591 
3947.000000	98.060494 
3946.000000	98.065672 
3945.000000	98.072724 
3944.000000	98.082012 
3943.000000	98.092004 
3942.000000	98.098504 
3941.000000	98.096814 
3940.000000	98.085685 
3939.000000	98.069167 
3938.000000	98.054534 
3937.000000	98.047350 
3936.000000	98.047824 
3935.000000	98.051564 
3934.000000	98.053860 
3933.000000	98.053851 
3932.000000	98.054878 
3931.000000	98.060491 
3930.000000	98.069941 
3929.000000	98.077632 
3928.000000	98.077190 
3927.000000	98.066754 
3926.000000	98.051134 
3925.000000	98.038732 
3924.000000	98.034995 
3923.000000	98.038639 
3922.000000	98.043626 
3921.000000	98.044290 
3920.000000	98.039476 
3919.000000	98.033025 
3918.000000	98.030319 
3917.000000	98.033896 
3916.000000	98.042158 
3915.000000	98.051332 
3914.000000	98.057758 
3913.000000	98.058780 
3912.000000	98.053748 
3911.000000	98.044716 
3910.000000	98.035808 
3909.000000	98.030839 
3908.000000	98.031104 
3907.000000	98.035128 
3906.000000	98.040160 
3905.000000	98.044665 
3904.000000	98.049843 
3903.000000	98.058119 
3902.000000	98.069747 
3901.000000	98.081188 
3900.000000	98.087657 
3899.000000	98.087815 
3898.000000	98.084859 
3897.000000	98.082796 
3896.000000	98.082774 
3895.000000	98.082839 
3894.000000	98.080606 
3893.000000	98.075851 
3892.000000	98.070920 
3891.000000	98.068057 
3890.000000	98.067212 
3889.000000	98.067134 
3888.000000	98.067126 
3887.000000	98.067735 
3886.000000	98.070339 
3885.000000	98.075532 
3884.000000	98.082871 
3883.000000	98.092776 
3882.000000	98.106177 
3881.000000	98.121329 
3880.000000	98.132451 
3879.000000	98.133725 
3878.000000	98.124278 
3877.000000	98.108809 
3876.000000	98.095131 
3875.000000	98.089141 
3874.000000	98.089434 
3873.000000	98.089368 
3872.000000	98.085428 
3871.000000	98.081029 
3870.000000	98.081399 
3869.000000	98.086802 
3868.000000	98.093963 
3867.000000	98.101090 
3866.000000	98.107400 
3865.000000	98.111245 
3864.000000	98.111542 
3863.000000	98.110205 
3862.000000	98.111365 
3861.000000	98.116426 
3860.000000	98.121645 
3859.000000	98.121701 
3858.000000	98.114957 
3857.000000	98.104564 
3856.000000	98.094839 
3855.000000	98.088255 
3854.000000	98.085596 
3853.000000	98.084159 
3852.000000	98.080882 
3851.000000	98.079491 
3850.000000	98.086057 
3849.000000	98.100874 
3848.000000	98.118000 
3847.000000	98.129928 
3846.000000	98.132575 
3845.000000	98.126409 
3844.000000	98.114569 
3843.000000	98.100520 
3842.000000	98.087510 
3841.000000	98.078331 
3840.000000	98.075309 
3839.000000	98.079686 
3838.000000	98.089997 
3837.000000	98.101882 
3836.000000	98.111131 
3835.000000	98.117163 
3834.000000	98.122527 
3833.000000	98.129111 
3832.000000	98.135661 
3831.000000	98.138971 
3830.000000	98.136944 
3829.000000	98.130814 
3828.000000	98.124747 
3827.000000	98.121987 
3826.000000	98.120875 
3825.000000	98.115447 
3824.000000	98.100933 
3823.000000	98.079647 
3822.000000	98.062807 
3821.000000	98.061525 
3820.000000	98.074767 
3819.000000	98.093829 
3818.000000	98.111964 
3817.000000	98.126245 
3816.000000	98.136683 
3815.000000	98.144131 
3814.000000	98.148096 
3813.000000	98.147087 
3812.000000	98.140447 
3811.000000	98.129922 
3810.000000	98.120083 
3809.000000	98.116409 
3808.000000	98.121093 
3807.000000	98.130107 
3806.000000	98.136260 
3805.000000	98.136142 
3804.000000	98.132397 
3803.000000	98.128964 
3802.000000	98.126781 
3801.000000	98.123955 
3800.000000	98.119760 
3799.000000	98.117456 
3798.000000	98.120876 
3797.000000	98.129007 
3796.000000	98.135953 
3795.000000	98.137367 
3794.000000	98.134838 
3793.000000	98.133009 
3792.000000	98.134611 
3791.000000	98.138466 
3790.000000	98.141146 
3789.000000	98.140349 
3788.000000	98.136554 
3787.000000	98.131874 
3786.000000	98.127435 
3785.000000	98.121990 
3784.000000	98.114132 
3783.000000	98.105859 
3782.000000	98.102803 
3781.000000	98.109898 
3780.000000	98.125689 
3779.000000	98.141022 
3778.000000	98.146279 
3777.000000	98.139605 
3776.000000	98.126612 
3775.000000	98.113966 
3774.000000	98.104557 
3773.000000	98.097692 
3772.000000	98.092566 
3771.000000	98.090343 
3770.000000	98.092650 
3769.000000	98.099040 
3768.000000	98.107432 
3767.000000	98.115764 
3766.000000	98.121375 
3765.000000	98.120486 
3764.000000	98.111030 
3763.000000	98.096064 
3762.000000	98.083431 
3761.000000	98.081081 
3760.000000	98.091025 
3759.000000	98.106073 
3758.000000	98.115024 
3757.000000	98.112734 
3756.000000	98.103751 
3755.000000	98.097171 
3754.000000	98.098540 
3753.000000	98.105519 
3752.000000	98.110970 
3751.000000	98.110022 
3750.000000	98.103050 
3749.000000	98.092770 
3748.000000	98.082450 
3747.000000	98.077859 
3746.000000	98.085530 
3745.000000	98.105654 
3744.000000	98.125311 
3743.000000	98.126626 
3742.000000	98.104626 
3741.000000	98.069427 
3740.000000	98.035653 
3739.000000	98.014097 
3738.000000	98.008972 
3737.000000	98.018522 
3736.000000	98.036217 
3735.000000	98.054017 
3734.000000	98.066994 
3733.000000	98.073843 
3732.000000	98.073259 
3731.000000	98.063716 
3730.000000	98.047289 
3729.000000	98.030806 
3728.000000	98.021721 
3727.000000	98.022869 
3726.000000	98.030419 
3725.000000	98.037914 
3724.000000	98.042463 
3723.000000	98.046368 
3722.000000	98.053396 
3721.000000	98.064262 
3720.000000	98.076569 
3719.000000	98.087811 
3718.000000	98.097221 
3717.000000	98.105248 
3716.000000	98.112144 
3715.000000	98.117510 
3714.000000	98.120609 
3713.000000	98.120962 
3712.000000	98.118069 
3711.000000	98.110533 
3710.000000	98.097934 
3709.000000	98.083528 
3708.000000	98.072272 
3707.000000	98.067180 
3706.000000	98.068177 
3705.000000	98.072701 
3704.000000	98.077176 
3703.000000	98.078192 
3702.000000	98.074407 
3701.000000	98.067613 
3700.000000	98.062308 
3699.000000	98.063287 
3698.000000	98.072232 
3697.000000	98.085939 
3696.000000	98.098067 
3695.000000	98.103671 
3694.000000	98.102736 
3693.000000	98.100033 
3692.000000	98.101608 
3691.000000	98.110480 
3690.000000	98.123834 
3689.000000	98.135688 
3688.000000	98.143164 
3687.000000	98.148708 
3686.000000	98.156247 
3685.000000	98.166478 
3684.000000	98.175439 
3683.000000	98.177991 
3682.000000	98.173761 
3681.000000	98.167657 
3680.000000	98.163585 
3679.000000	98.159775 
3678.000000	98.151831 
3677.000000	98.139514 
3676.000000	98.129751 
3675.000000	98.128317 
3674.000000	98.133572 
3673.000000	98.142331 
3672.000000	98.153022 
3671.000000	98.164622 
3670.000000	98.176410 
3669.000000	98.187144 
3668.000000	98.195463 
3667.000000	98.201034 
3666.000000	98.204602 
3665.000000	98.207760 
3664.000000	98.211362 
3663.000000	98.213231 
3662.000000	98.209200 
3661.000000	98.197436 
3660.000000	98.179999 
3659.000000	98.160721 
3658.000000	98.143874 
3657.000000	98.135138 
3656.000000	98.139312 
3655.000000	98.154354 
3654.000000	98.171494 
3653.000000	98.181458 
3652.000000	98.179065 
3651.000000	98.165902 
3650.000000	98.150553 
3649.000000	98.142119 
3648.000000	98.143401 
3647.000000	98.151676 
3646.000000	98.162034 
3645.000000	98.169996 
3644.000000	98.173512 
3643.000000	98.172921 
3642.000000	98.169810 
3641.000000	98.166192 
3640.000000	98.164106 
3639.000000	98.164297 
3638.000000	98.164483 
3637.000000	98.160329 
3636.000000	98.149229 
3635.000000	98.132839 
3634.000000	98.115374 
3633.000000	98.100049 
3632.000000	98.088023 
3631.000000	98.079496 
3630.000000	98.074199 
3629.000000	98.069930 
3628.000000	98.062729 
3627.000000	98.053291 
3626.000000	98.047888 
3625.000000	98.050603 
3624.000000	98.058191 
3623.000000	98.062769 
3622.000000	98.060184 
3621.000000	98.055521 
3620.000000	98.058395 
3619.000000	98.070902 
3618.000000	98.083957 
3617.000000	98.088560 
3616.000000	98.084899 
3615.000000	98.079676 
3614.000000	98.078672 
3613.000000	98.082878 
3612.000000	98.090632 
3611.000000	98.101020 
3610.000000	98.112966 
3609.000000	98.122672 
3608.000000	98.124935 
3607.000000	98.117992 
3606.000000	98.106110 
3605.000000	98.096220 
3604.000000	98.092975 
3603.000000	98.096608 
3602.000000	98.103639 
3601.000000	98.108985 
3600.000000	98.109242 
3599.000000	98.105841 
3598.000000	98.104974 
3597.000000	98.113597 
3596.000000	98.133090 
3595.000000	98.155899 
3594.000000	98.170240 
3593.000000	98.169699 
3592.000000	98.157016 
3591.000000	98.139443 
3590.000000	98.123450 
3589.000000	98.114114 
3588.000000	98.115130 
3587.000000	98.125519 
3586.000000	98.139046 
3585.000000	98.148795 
3584.000000	98.150669 
3583.000000	98.144027 
3582.000000	98.131728 
3581.000000	98.119409 
3580.000000	98.113798 
3579.000000	98.119721 
3578.000000	98.136682 
3577.000000	98.157579 
3576.000000	98.171363 
3575.000000	98.168740 
3574.000000	98.147595 
3573.000000	98.114518 
3572.000000	98.081392 
3571.000000	98.060135 
3570.000000	98.058678 
3569.000000	98.078619 
3568.000000	98.113091 
3567.000000	98.148442 
3566.000000	98.173578 
3565.000000	98.188616 
3564.000000	98.200708 
3563.000000	98.213949 
3562.000000	98.225116 
3561.000000	98.227028 
3560.000000	98.215366 
3559.000000	98.193101 
3558.000000	98.168878 
3557.000000	98.151235 
3556.000000	98.143846 
3555.000000	98.145316 
3554.000000	98.152281 
3553.000000	98.162580 
3552.000000	98.175773 
3551.000000	98.191716 
3550.000000	98.208973 
3549.000000	98.224136 
3548.000000	98.232864 
3547.000000	98.232893 
3546.000000	98.226962 
3545.000000	98.221504 
3544.000000	98.220642 
3543.000000	98.221778 
3542.000000	98.218236 
3541.000000	98.206715 
3540.000000	98.191762 
3539.000000	98.182764 
3538.000000	98.186014 
3537.000000	98.199434 
3536.000000	98.214351 
3535.000000	98.222809 
3534.000000	98.223137 
3533.000000	98.219514 
3532.000000	98.217567 
3531.000000	98.220818 
3530.000000	98.229096 
3529.000000	98.237775 
3528.000000	98.238977 
3527.000000	98.227233 
3526.000000	98.206530 
3525.000000	98.189816 
3524.000000	98.188738 
3523.000000	98.203180 
3522.000000	98.222770 
3521.000000	98.237197 
3520.000000	98.242203 
3519.000000	98.237550 
3518.000000	98.225333 
3517.000000	98.212234 
3516.000000	98.208357 
3515.000000	98.219102 
3514.000000	98.238818 
3513.000000	98.255716 
3512.000000	98.262669 
3511.000000	98.260852 
3510.000000	98.253633 
3509.000000	98.240997 
3508.000000	98.222102 
3507.000000	98.200468 
3506.000000	98.183231 
3505.000000	98.175459 
3504.000000	98.176525 
3503.000000	98.182073 
3502.000000	98.188258 
3501.000000	98.193057 
3500.000000	98.195240 
3499.000000	98.195302 
3498.000000	98.197694 
3497.000000	98.208609 
3496.000000	98.228226 
3495.000000	98.246489 
3494.000000	98.250208 
3493.000000	98.235407 
3492.000000	98.211099 
3491.000000	98.190742 
3490.000000	98.181807 
3489.000000	98.183313 
3488.000000	98.190405 
3487.000000	98.198616 
3486.000000	98.205096 
3485.000000	98.208806 
3484.000000	98.210208 
3483.000000	98.209473 
3482.000000	98.204820 
3481.000000	98.194353 
3480.000000	98.180235 
3479.000000	98.169406 
3478.000000	98.168292 
3477.000000	98.176360 
3476.000000	98.185770 
3475.000000	98.188451 
3474.000000	98.183965 
3473.000000	98.179317 
3472.000000	98.180732 
3471.000000	98.186700 
3470.000000	98.190168 
3469.000000	98.186913 
3468.000000	98.180216 
3467.000000	98.177370 
3466.000000	98.182593 
3465.000000	98.193512 
3464.000000	98.203206 
3463.000000	98.205620 
3462.000000	98.201011 
3461.000000	98.196800 
3460.000000	98.201189 
3459.000000	98.214139 
3458.000000	98.225388 
3457.000000	98.223442 
3456.000000	98.206726 
3455.000000	98.185181 
3454.000000	98.170807 
3453.000000	98.167931 
3452.000000	98.172698 
3451.000000	98.179296 
3450.000000	98.184248 
3449.000000	98.185692 
3448.000000	98.182570 
3447.000000	98.176837 
3446.000000	98.173971 
3445.000000	98.177375 
3444.000000	98.182609 
3443.000000	98.180367 
3442.000000	98.166313 
3441.000000	98.146446 
3440.000000	98.131775 
3439.000000	98.129493 
3438.000000	98.139205 
3437.000000	98.154351 
3436.000000	98.165627 
3435.000000	98.166196 
3434.000000	98.156867 
3433.000000	98.145914 
3432.000000	98.142257 
3431.000000	98.149338 
3430.000000	98.165175 
3429.000000	98.184446 
3428.000000	98.198657 
3427.000000	98.198996 
3426.000000	98.184192 
3425.000000	98.163744 
3424.000000	98.149087 
3423.000000	98.142683 
3422.000000	98.139374 
3421.000000	98.136353 
3420.000000	98.135604 
3419.000000	98.137022 
3418.000000	98.136019 
3417.000000	98.129950 
3416.000000	98.121412 
3415.000000	98.112635 
3414.000000	98.101503 
3413.000000	98.086886 
3412.000000	98.074372 
3411.000000	98.071896 
3410.000000	98.080852 
3409.000000	98.094849 
3408.000000	98.106479 
3407.000000	98.112770 
3406.000000	98.114436 
3405.000000	98.112496 
3404.000000	98.106716 
3403.000000	98.096731 
3402.000000	98.084297 
3401.000000	98.073836 
3400.000000	98.069451 
3399.000000	98.071116 
3398.000000	98.074492 
3397.000000	98.074218 
3396.000000	98.066568 
3395.000000	98.050651 
3394.000000	98.030305 
3393.000000	98.014401 
3392.000000	98.011121 
3391.000000	98.020150 
3390.000000	98.033065 
3389.000000	98.042184 
3388.000000	98.046481 
3387.000000	98.048874 
3386.000000	98.052269 
3385.000000	98.059786 
3384.000000	98.073722 
3383.000000	98.089802 
3382.000000	98.095801 
3381.000000	98.081874 
3380.000000	98.052472 
3379.000000	98.024573 
3378.000000	98.013186 
3377.000000	98.020189 
3376.000000	98.036177 
3375.000000	98.049798 
3374.000000	98.054853 
3373.000000	98.051899 
3372.000000	98.045984 
3371.000000	98.042574 
3370.000000	98.044208 
3369.000000	98.049885 
3368.000000	98.056784 
3367.000000	98.062164 
3366.000000	98.064265 
3365.000000	98.062492 
3364.000000	98.057399 
3363.000000	98.050927 
3362.000000	98.046484 
3361.000000	98.047188 
3360.000000	98.052232 
3359.000000	98.055557 
3358.000000	98.050471 
3357.000000	98.036563 
3356.000000	98.020831 
3355.000000	98.011328 
3354.000000	98.010086 
3353.000000	98.011990 
3352.000000	98.009388 
3351.000000	97.998773 
3350.000000	97.985083 
3349.000000	97.978516 
3348.000000	97.984072 
3347.000000	97.994214 
3346.000000	97.995585 
3345.000000	97.984042 
3344.000000	97.969897 
3343.000000	97.966706 
3342.000000	97.977226 
3341.000000	97.991639 
3340.000000	97.996627 
3339.000000	97.984681 
3338.000000	97.957818 
3337.000000	97.925768 
3336.000000	97.899638 
3335.000000	97.884802 
3334.000000	97.879388 
3333.000000	97.878621 
3332.000000	97.878082 
3331.000000	97.873579 
3330.000000	97.863271 
3329.000000	97.852446 
3328.000000	97.851330 
3327.000000	97.863297 
3326.000000	97.878046 
3325.000000	97.881427 
3324.000000	97.870145 
3323.000000	97.851986 
3322.000000	97.833153 
3321.000000	97.812263 
3320.000000	97.787908 
3319.000000	97.765621 
3318.000000	97.752399 
3317.000000	97.746875 
3316.000000	97.739547 
3315.000000	97.722876 
3314.000000	97.698617 
3313.000000	97.674521 
3312.000000	97.655667 
3311.000000	97.640214 
3310.000000	97.622636 
3309.000000	97.599360 
3308.000000	97.570723 
3307.000000	97.538879 
3306.000000	97.505641 
3305.000000	97.472433 
3304.000000	97.440718 
3303.000000	97.411295 
3302.000000	97.383508 
3301.000000	97.355446 
3300.000000	97.324595 
3299.000000	97.288699 
3298.000000	97.247407 
3297.000000	97.203709 
3296.000000	97.162610 
3295.000000	97.127215 
3294.000000	97.095922 
3293.000000	97.063460 
3292.000000	97.024725 
3291.000000	96.978700 
3290.000000	96.929950 
3289.000000	96.886047 
3288.000000	96.852075 
3287.000000	96.827030 
3286.000000	96.805664 
3285.000000	96.783139 
3284.000000	96.757469 
3283.000000	96.729527 
3282.000000	96.703159 
3281.000000	96.684088 
3280.000000	96.675225 
3279.000000	96.672428 
3278.000000	96.667215 
3277.000000	96.654305 
3276.000000	96.634974 
3275.000000	96.613534 
3274.000000	96.593258 
3273.000000	96.575656 
3272.000000	96.560183 
3271.000000	96.543419 
3270.000000	96.521234 
3269.000000	96.493184 
3268.000000	96.462562 
3267.000000	96.431343 
3266.000000	96.397916 
3265.000000	96.361429 
3264.000000	96.325880 
3263.000000	96.297677 
3262.000000	96.280301 
3261.000000	96.272106 
3260.000000	96.266907 
3259.000000	96.255523 
3258.000000	96.229940 
3257.000000	96.189405 
3256.000000	96.141650 
3255.000000	96.095787 
3254.000000	96.054265 
3253.000000	96.012965 
3252.000000	95.968010 
3251.000000	95.920404 
3250.000000	95.873977 
3249.000000	95.830297 
3248.000000	95.786688 
3247.000000	95.739961 
3246.000000	95.692082 
3245.000000	95.650266 
3244.000000	95.619509 
3243.000000	95.596218 
3242.000000	95.571616 
3241.000000	95.540037 
3240.000000	95.500776 
3239.000000	95.453476 
3238.000000	95.397454 
3237.000000	95.336925 
3236.000000	95.281446 
3235.000000	95.237175 
3234.000000	95.199998 
3233.000000	95.160108 
3232.000000	95.111708 
3231.000000	95.056480 
3230.000000	94.999906 
3229.000000	94.946687 
3228.000000	94.898179 
3227.000000	94.852099 
3226.000000	94.805724 
3225.000000	94.760415 
3224.000000	94.721011 
3223.000000	94.689342 
3222.000000	94.660489 
3221.000000	94.627286 
3220.000000	94.586914 
3219.000000	94.541574 
3218.000000	94.494547 
3217.000000	94.447313 
3216.000000	94.398949 
3215.000000	94.347066 
3214.000000	94.291305 
3213.000000	94.236856 
3212.000000	94.191426 
3211.000000	94.156402 
3210.000000	94.123421 
3209.000000	94.082176 
3208.000000	94.029692 
3207.000000	93.969764 
3206.000000	93.906329 
3205.000000	93.841297 
3204.000000	93.777023 
3203.000000	93.716012 
3202.000000	93.657465 
3201.000000	93.597228 
3200.000000	93.532396 
3199.000000	93.464595 
3198.000000	93.398206 
3197.000000	93.335974 
3196.000000	93.275847 
3195.000000	93.211349 
3194.000000	93.136295 
3193.000000	93.050806 
3192.000000	92.961941 
3191.000000	92.876550 
3190.000000	92.793843 
3189.000000	92.706502 
3188.000000	92.608631 
3187.000000	92.500771 
3186.000000	92.387299 
3185.000000	92.271376 
3184.000000	92.154150 
3183.000000	92.037824 
3182.000000	91.926714 
3181.000000	91.823326 
3180.000000	91.723817 
3179.000000	91.619380 
3178.000000	91.502998 
3177.000000	91.373687 
3176.000000	91.234295 
3175.000000	91.088637 
3174.000000	90.942805 
3173.000000	90.805452 
3172.000000	90.681665 
3171.000000	90.567439 
3170.000000	90.454523 
3169.000000	90.340482 
3168.000000	90.229871 
3167.000000	90.125708 
3166.000000	90.024631 
3165.000000	89.921350 
3164.000000	89.813257 
3163.000000	89.699146 
3162.000000	89.577855 
3161.000000	89.450599 
3160.000000	89.321034 
3159.000000	89.190733 
3158.000000	89.057984 
3157.000000	88.923010 
3156.000000	88.789950 
3155.000000	88.660124 
3154.000000	88.527001 
3153.000000	88.382628 
3152.000000	88.227307 
3151.000000	88.068629 
3150.000000	87.911946 
3149.000000	87.755827 
3148.000000	87.596848 
3147.000000	87.435448 
3146.000000	87.276114 
3145.000000	87.123337 
3144.000000	86.977407 
3143.000000	86.833023 
3142.000000	86.682777 
3141.000000	86.523597 
3140.000000	86.359349 
3139.000000	86.195970 
3138.000000	86.034985 
3137.000000	85.873376 
3136.000000	85.708753 
3135.000000	85.542117 
3134.000000	85.375035 
3133.000000	85.205745 
3132.000000	85.029390 
3131.000000	84.842208 
3130.000000	84.645137 
3129.000000	84.442885 
3128.000000	84.239534 
3127.000000	84.035775 
3126.000000	83.830371 
3125.000000	83.621754 
3124.000000	83.405865 
3123.000000	83.174565 
3122.000000	82.921017 
3121.000000	82.647697 
3120.000000	82.365546 
3119.000000	82.083291 
3118.000000	81.799368 
3117.000000	81.505195 
3116.000000	81.193760 
3115.000000	80.863514 
3114.000000	80.516848 
3113.000000	80.158275 
3112.000000	79.793335 
3111.000000	79.426152 
3110.000000	79.056782 
3109.000000	78.681769 
3108.000000	78.298241 
3107.000000	77.908066 
3106.000000	77.517944 
3105.000000	77.134256 
3104.000000	76.757095 
3103.000000	76.380646 
3102.000000	76.000870 
3101.000000	75.621386 
3100.000000	75.249492 
3099.000000	74.887800 
3098.000000	74.533128 
3097.000000	74.183143 
3096.000000	73.840365 
3095.000000	73.508424 
3094.000000	73.186931 
3093.000000	72.871844 
3092.000000	72.559929 
3091.000000	72.252210 
3090.000000	71.953405 
3089.000000	71.667396 
3088.000000	71.392720 
3087.000000	71.124114 
3086.000000	70.859920 
3085.000000	70.605424 
3084.000000	70.365712 
3083.000000	70.137009 
3082.000000	69.908937 
3081.000000	69.674714 
3080.000000	69.435667 
3079.000000	69.196737 
3078.000000	68.962551 
3077.000000	68.738420 
3076.000000	68.529960 
3075.000000	68.338708 
3074.000000	68.160635 
3073.000000	67.991081 
3072.000000	67.829425 
3071.000000	67.677243 
3070.000000	67.533471 
3069.000000	67.393245 
3068.000000	67.251464 
3067.000000	67.107331 
3066.000000	66.965597 
3065.000000	66.832507 
3064.000000	66.709438 
3063.000000	66.591830 
3062.000000	66.476159 
3061.000000	66.366526 
3060.000000	66.271796 
3059.000000	66.196911 
3058.000000	66.139596 
3057.000000	66.094829 
3056.000000	66.059288 
3055.000000	66.031228 
3054.000000	66.009368 
3053.000000	65.993438 
3052.000000	65.984035 
3051.000000	65.980858 
3050.000000	65.982260 
3049.000000	65.987071 
3048.000000	65.995982 
3047.000000	66.010710 
3046.000000	66.031983 
3045.000000	66.057443 
3044.000000	66.080909 
3043.000000	66.095477 
3042.000000	66.099213 
3041.000000	66.096818 
3040.000000	66.093944 
3039.000000	66.090858 
3038.000000	66.083197 
3037.000000	66.067274 
3036.000000	66.042170 
3035.000000	66.007813 
3034.000000	65.964074 
3033.000000	65.912022 
3032.000000	65.854570 
3031.000000	65.796318 
3030.000000	65.743565 
3029.000000	65.702212 
3028.000000	65.672882 
3027.000000	65.649224 
3026.000000	65.623680 
3025.000000	65.594248 
3024.000000	65.563644 
3023.000000	65.533688 
3022.000000	65.503905 
3021.000000	65.474341 
3020.000000	65.445736 
3019.000000	65.417334 
3018.000000	65.388511 
3017.000000	65.363006 
3016.000000	65.347386 
3015.000000	65.343236 
3014.000000	65.343176 
3013.000000	65.336507 
3012.000000	65.318430 
3011.000000	65.293563 
3010.000000	65.271048 
3009.000000	65.255217 
3008.000000	65.239150 
3007.000000	65.206609 
3006.000000	65.140146 
3005.000000	65.026523 
3004.000000	64.857555 
3003.000000	64.635986 
3002.000000	64.390338 
3001.000000	64.182086 
3000.000000	64.084397 
2999.000000	64.140477 
2998.000000	64.334594 
2997.000000	64.599334 
2996.000000	64.846074 
2995.000000	64.991672 
2994.000000	64.971292 
2993.000000	64.748132 
2992.000000	64.329748 
2991.000000	63.779565 
2990.000000	63.205247 
2989.000000	62.720206 
2988.000000	62.400739 
2987.000000	62.268754 
2986.000000	62.305237 
2985.000000	62.473986 
2984.000000	62.734382 
2983.000000	63.045181 
2982.000000	63.370073 
2981.000000	63.684731 
2980.000000	63.978242 
2979.000000	64.248512 
2978.000000	64.498264 
2977.000000	64.733223 
2976.000000	64.960373 
2975.000000	65.187042 
2974.000000	65.422117 
2973.000000	65.675584 
2972.000000	65.953187 
2971.000000	66.251459 
2970.000000	66.559590 
2969.000000	66.865708 
2968.000000	67.160216 
2967.000000	67.435944 
2966.000000	67.689443 
2965.000000	67.923088 
2964.000000	68.143556 
2963.000000	68.356739 
2962.000000	68.563473 
2961.000000	68.758220 
2960.000000	68.930115 
2959.000000	69.066605 
2958.000000	69.158293 
2957.000000	69.200403 
2956.000000	69.189837 
2955.000000	69.123783 
2954.000000	69.003767 
2953.000000	68.839394 
2952.000000	68.645325 
2951.000000	68.434929 
2950.000000	68.217652 
2949.000000	67.999366 
2948.000000	67.781847 
2947.000000	67.563234 
2946.000000	67.342252 
2945.000000	67.121592 
2944.000000	66.905212 
2943.000000	66.694085 
2942.000000	66.487668 
2941.000000	66.288670 
2940.000000	66.103563 
2939.000000	65.938970 
2938.000000	65.799810 
2937.000000	65.689614 
2936.000000	65.609575 
2935.000000	65.557560 
2934.000000	65.530401 
2933.000000	65.526851 
2932.000000	65.547100 
2931.000000	65.590865 
2930.000000	65.657619 
2929.000000	65.746546 
2928.000000	65.854045 
2927.000000	65.973718 
2926.000000	66.101695 
2925.000000	66.239843 
2924.000000	66.390306 
2923.000000	66.549218 
2922.000000	66.709941 
2921.000000	66.870931 
2920.000000	67.035712 
2919.000000	67.205874 
2918.000000	67.378785 
2917.000000	67.552814 
2916.000000	67.730419 
2915.000000	67.914104 
2914.000000	68.101675 
2913.000000	68.287385 
2912.000000	68.466510 
2911.000000	68.637530 
2910.000000	68.800487 
2909.000000	68.954719 
2908.000000	69.099432 
2907.000000	69.236878 
2906.000000	69.373241 
2905.000000	69.513253 
2904.000000	69.653431 
2903.000000	69.783332 
2902.000000	69.894840 
2901.000000	69.988129 
2900.000000	70.067548 
2899.000000	70.135481 
2898.000000	70.192812 
2897.000000	70.242272 
2896.000000	70.287199 
2895.000000	70.328047 
2894.000000	70.363277 
2893.000000	70.392789 
2892.000000	70.417895 
2891.000000	70.439089 
2890.000000	70.456541 
2889.000000	70.471582 
2888.000000	70.484791 
2887.000000	70.493620 
2886.000000	70.495284 
2885.000000	70.492266 
2884.000000	70.492761 
2883.000000	70.505462 
2882.000000	70.534796 
2881.000000	70.579470 
2880.000000	70.633322 
2879.000000	70.688922 
2878.000000	70.743092 
2877.000000	70.798628 
2876.000000	70.858606 
2875.000000	70.920064 
2874.000000	70.975740 
2873.000000	71.021549 
2872.000000	71.059960 
2871.000000	71.096406 
2870.000000	71.134260 
2869.000000	71.173023 
2868.000000	71.209701 
2867.000000	71.242169 
2866.000000	71.272118 
2865.000000	71.303378 
2864.000000	71.335981 
2863.000000	71.363676 
2862.000000	71.379726 
2861.000000	71.384250 
2860.000000	71.384241 
2859.000000	71.387779 
2858.000000	71.399687 
2857.000000	71.420759 
2856.000000	71.448338 
2855.000000	71.478728 
2854.000000	71.510826 
2853.000000	71.546393 
2852.000000	71.585801 
2851.000000	71.626221 
2850.000000	71.666180 
2849.000000	71.709224 
2848.000000	71.759576 
2847.000000	71.815493 
2846.000000	71.869751 
2845.000000	71.915923 
2844.000000	71.952391 
2843.000000	71.981985 
2842.000000	72.010074 
2841.000000	72.041083 
2840.000000	72.073747 
2839.000000	72.100517 
2838.000000	72.113573 
2837.000000	72.109961 
2836.000000	72.089107 
2835.000000	72.048355 
2834.000000	71.984905 
2833.000000	71.900596 
2832.000000	71.800778 
2831.000000	71.688927 
2830.000000	71.565289 
2829.000000	71.429825 
2828.000000	71.283028 
2827.000000	71.124503 
2826.000000	70.954404 
2825.000000	70.776648 
2824.000000	70.597982 
2823.000000	70.423433 
2822.000000	70.254533 
2821.000000	70.091567 
2820.000000	69.935273 
2819.000000	69.786245 
2818.000000	69.644398 
2817.000000	69.509261 
2816.000000	69.380277 
2815.000000	69.257881 
2814.000000	69.144888 
2813.000000	69.045212 
2812.000000	68.960376 
2811.000000	68.889392 
2810.000000	68.832575 
2809.000000	68.792201 
2808.000000	68.768190 
2807.000000	68.757433 
2806.000000	68.760222 
2805.000000	68.783067 
2804.000000	68.830543 
2803.000000	68.897067 
2802.000000	68.970995 
2801.000000	69.044503 
2800.000000	69.114428 
2799.000000	69.175141 
2798.000000	69.216616 
2797.000000	69.230602 
2796.000000	69.215836 
2795.000000	69.177398 
2794.000000	69.124221 
2793.000000	69.066158 
2792.000000	69.008633 
2791.000000	68.948626 
2790.000000	68.878604 
2789.000000	68.795799 
2788.000000	68.706669 
2787.000000	68.622812 
2786.000000	68.554240 
2785.000000	68.505560 
2784.000000	68.475494 
2783.000000	68.459459 
2782.000000	68.453763 
2781.000000	68.457633 
2780.000000	68.471450 
2779.000000	68.495166 
2778.000000	68.529379 
2777.000000	68.575239 
2776.000000	68.631384 
2775.000000	68.693527 
2774.000000	68.759396 
2773.000000	68.831342 
2772.000000	68.911170 
2771.000000	68.995059 
2770.000000	69.077465 
2769.000000	69.158105 
2768.000000	69.240780 
2767.000000	69.326313 
2766.000000	69.410838 
2765.000000	69.490858 
2764.000000	69.565872 
2763.000000	69.635134 
2762.000000	69.694661 
2761.000000	69.738769 
2760.000000	69.763501 
2759.000000	69.768801 
2758.000000	69.758724 
2757.000000	69.738896 
2756.000000	69.712255 
2755.000000	69.677882 
2754.000000	69.635092 
2753.000000	69.587134 
2752.000000	69.539230 
2751.000000	69.494258 
2750.000000	69.451923 
2749.000000	69.410239 
2748.000000	69.366028 
2747.000000	69.315858 
2746.000000	69.258564 
2745.000000	69.195021 
2744.000000	69.123659 
2743.000000	69.038905 
2742.000000	68.936819 
2741.000000	68.819986 
2740.000000	68.693737 
2739.000000	68.559579 
2738.000000	68.415699 
2737.000000	68.262266 
2736.000000	68.103009 
2735.000000	67.943008 
2734.000000	67.788185 
2733.000000	67.645747 
2732.000000	67.522126 
2731.000000	67.421593 
2730.000000	67.349187 
2729.000000	67.312559 
2728.000000	67.317257 
2727.000000	67.361487 
2726.000000	67.438925 
2725.000000	67.545538 
2724.000000	67.680606 
2723.000000	67.842290 
2722.000000	68.025937 
2721.000000	68.226612 
2720.000000	68.440692 
2719.000000	68.665150 
2718.000000	68.897223 
2717.000000	69.134415 
2716.000000	69.373986 
2715.000000	69.614501 
2714.000000	69.859565 
2713.000000	70.117030 
2712.000000	70.390895 
2711.000000	70.675421 
2710.000000	70.960663 
2709.000000	71.243027 
2708.000000	71.527439 
2707.000000	71.820089 
2706.000000	72.121874 
2705.000000	72.428056 
2704.000000	72.731333 
2703.000000	73.025450 
2702.000000	73.308410 
2701.000000	73.582477 
2700.000000	73.850063 
2699.000000	74.111026 
2698.000000	74.365275 
2697.000000	74.615412 
2696.000000	74.863920 
2695.000000	75.109729 
2694.000000	75.350922 
2693.000000	75.589366 
2692.000000	75.829251 
2691.000000	76.072203 
2690.000000	76.317214 
2689.000000	76.564312 
2688.000000	76.814491 
2687.000000	77.066437 
2686.000000	77.316889 
2685.000000	77.564307 
2684.000000	77.809397 
2683.000000	78.052404 
2682.000000	78.292821 
2681.000000	78.531271 
2680.000000	78.768051 
2679.000000	78.999174 
2678.000000	79.216487 
2677.000000	79.412386 
2676.000000	79.582933 
2675.000000	79.726673 
2674.000000	79.842478 
2673.000000	79.928209 
2672.000000	79.979921 
2671.000000	79.993509 
2670.000000	79.969156 
2669.000000	79.912762 
2668.000000	79.830568 
2667.000000	79.724227 
2666.000000	79.594063 
2665.000000	79.445050 
2664.000000	79.285425 
2663.000000	79.120863 
2662.000000	78.954660 
2661.000000	78.793301 
2660.000000	78.647170 
2659.000000	78.524698 
2658.000000	78.428468 
2657.000000	78.357016 
2656.000000	78.307640 
2655.000000	78.277651 
2654.000000	78.265488 
2653.000000	78.270376 
2652.000000	78.289168 
2651.000000	78.315110 
2650.000000	78.342166 
2649.000000	78.368563 
2648.000000	78.393235 
2647.000000	78.411494 
2646.000000	78.418022 
2645.000000	78.411305 
2644.000000	78.390138 
2643.000000	78.348109 
2642.000000	78.277189 
2641.000000	78.175058 
2640.000000	78.042849 
2639.000000	77.877317 
2638.000000	77.672524 
2637.000000	77.429450 
2636.000000	77.157159 
2635.000000	76.863468 
2634.000000	76.550393 
2633.000000	76.219692 
2632.000000	75.877349 
2631.000000	75.531412 
2630.000000	75.190218 
2629.000000	74.862747 
2628.000000	74.554856 
2627.000000	74.263953 
2626.000000	73.982296 
2625.000000	73.706475 
2624.000000	73.439549 
2623.000000	73.184187 
2622.000000	72.938911 
2621.000000	72.701499 
2620.000000	72.471276 
2619.000000	72.247812 
2618.000000	72.031599 
2617.000000	71.825337 
2616.000000	71.629659 
2615.000000	71.438447 
2614.000000	71.243604 
2613.000000	71.043438 
2612.000000	70.840586 
2611.000000	70.632995 
2610.000000	70.414468 
2609.000000	70.184950 
2608.000000	69.954124 
2607.000000	69.734295 
2606.000000	69.535492 
2605.000000	69.366814 
2604.000000	69.233645 
2603.000000	69.129911 
2602.000000	69.039135 
2601.000000	68.947643 
2600.000000	68.854695 
2599.000000	68.768938 
2598.000000	68.699132 
2597.000000	68.650022 
2596.000000	68.623126 
2595.000000	68.618702 
2594.000000	68.638453 
2593.000000	68.687338 
2592.000000	68.771739 
2591.000000	68.896621 
2590.000000	69.066004 
2589.000000	69.283977 
2588.000000	69.551920 
2587.000000	69.865840 
2586.000000	70.218897 
2585.000000	70.604271 
2584.000000	71.012258 
2583.000000	71.427659 
2582.000000	71.835905 
2581.000000	72.231425 
2580.000000	72.615361 
2579.000000	72.985485 
2578.000000	73.333788 
2577.000000	73.655230 
2576.000000	73.954446 
2575.000000	74.241541 
2574.000000	74.523301 
2573.000000	74.798552 
2572.000000	75.059012 
2571.000000	75.294517 
2570.000000	75.501020 
2569.000000	75.684959 
2568.000000	75.858142 
2567.000000	76.028471 
2566.000000	76.197370 
2565.000000	76.364258 
2564.000000	76.529671 
2563.000000	76.694793 
2562.000000	76.861819 
2561.000000	77.034417 
2560.000000	77.214245 
2559.000000	77.397616 
2558.000000	77.579458 
2557.000000	77.760199 
2556.000000	77.944755 
2555.000000	78.134831 
2554.000000	78.326385 
2553.000000	78.515202 
2552.000000	78.701155 
2551.000000	78.885606 
2550.000000	79.067057 
2549.000000	79.240251 
2548.000000	79.398264 
2547.000000	79.535885 
2546.000000	79.652308 
2545.000000	79.749641 
2544.000000	79.828186 
2543.000000	79.886107 
2542.000000	79.925301 
2541.000000	79.953124 
2540.000000	79.974632 
2539.000000	79.987318 
2538.000000	79.988224 
2537.000000	79.981954 
2536.000000	79.975460 
2535.000000	79.968549 
2534.000000	79.957042 
2533.000000	79.943124 
2532.000000	79.934577 
2531.000000	79.933926 
2530.000000	79.934870 
2529.000000	79.929686 
2528.000000	79.914727 
2527.000000	79.888781 
2526.000000	79.851206 
2525.000000	79.801821 
2524.000000	79.738913 
2523.000000	79.658943 
2522.000000	79.562433 
2521.000000	79.457366 
2520.000000	79.351106 
2519.000000	79.241425 
2518.000000	79.122007 
2517.000000	78.995122 
2516.000000	78.872169 
2515.000000	78.762165 
2514.000000	78.665040 
2513.000000	78.575369 
2512.000000	78.488371 
2511.000000	78.404635 
2510.000000	78.333489 
2509.000000	78.288227 
2508.000000	78.272880 
2507.000000	78.278433 
2506.000000	78.298677 
2505.000000	78.344497 
2504.000000	78.433203 
2503.000000	78.567493 
2502.000000	78.735302 
2501.000000	78.928301 
2500.000000	79.149295 
2499.000000	79.400280 
2498.000000	79.673029 
2497.000000	79.954529 
2496.000000	80.235073 
2495.000000	80.509283 
2494.000000	80.775455 
2493.000000	81.035455 
2492.000000	81.289607 
2491.000000	81.530971 
2490.000000	81.750961 
2489.000000	81.951787 
2488.000000	82.146832 
2487.000000	82.346670 
2486.000000	82.549699 
2485.000000	82.747030 
2484.000000	82.930110 
2483.000000	83.091917 
2482.000000	83.227406 
2481.000000	83.336689 
2480.000000	83.424351 
2479.000000	83.493905 
2478.000000	83.545965 
2477.000000	83.581251 
2476.000000	83.600114 
2475.000000	83.599267 
2474.000000	83.575651 
2473.000000	83.535844 
2472.000000	83.497150 
2471.000000	83.477842 
2470.000000	83.489159 
2469.000000	83.534782 
2468.000000	83.611698 
2467.000000	83.711408 
2466.000000	83.826475 
2465.000000	83.957422 
2464.000000	84.108694 
2463.000000	84.277357 
2462.000000	84.450610 
2461.000000	84.615842 
2460.000000	84.769943 
2459.000000	84.918845 
2458.000000	85.071225 
2457.000000	85.231384 
2456.000000	85.393795 
2455.000000	85.545386 
2454.000000	85.677784 
2453.000000	85.796615 
2452.000000	85.915190 
2451.000000	86.041349 
2450.000000	86.174959 
2449.000000	86.313982 
2448.000000	86.454777 
2447.000000	86.588499 
2446.000000	86.706135 
2445.000000	86.807560 
2444.000000	86.898815 
2443.000000	86.981395 
2442.000000	87.051920 
2441.000000	87.111328 
2440.000000	87.165031 
2439.000000	87.213266 
2438.000000	87.250594 
2437.000000	87.277458 
2436.000000	87.304270 
2435.000000	87.340769 
2434.000000	87.387158 
2433.000000	87.437440 
2432.000000	87.485775 
2431.000000	87.528481 
2430.000000	87.565889 
2429.000000	87.603622 
2428.000000	87.646816 
2427.000000	87.692625 
2426.000000	87.733634 
2425.000000	87.767860 
2424.000000	87.799227 
2423.000000	87.829262 
2422.000000	87.855936 
2421.000000	87.880757 
2420.000000	87.909787 
2419.000000	87.947255 
2418.000000	87.994273 
2417.000000	88.052545 
2416.000000	88.121704 
2415.000000	88.194367 
2414.000000	88.262707 
2413.000000	88.329739 
2412.000000	88.405400 
2411.000000	88.492104 
2410.000000	88.583985 
2409.000000	88.680235 
2408.000000	88.786967 
2407.000000	88.902575 
2406.000000	89.012584 
2405.000000	89.105038 
2404.000000	89.182535 
2403.000000	89.253178 
2402.000000	89.316760 
2401.000000	89.366276 
2400.000000	89.398360 
2399.000000	89.416874 
2398.000000	89.428965 
2397.000000	89.440387 
2396.000000	89.451616 
2395.000000	89.457061 
2394.000000	89.451694 
2393.000000	89.439214 
2392.000000	89.430038 
2391.000000	89.432145 
2390.000000	89.449044 
2389.000000	89.484841 
2388.000000	89.542860 
2387.000000	89.617967 
2386.000000	89.697395 
2385.000000	89.771325 
2384.000000	89.837392 
2383.000000	89.894092 
2382.000000	89.937552 
2381.000000	89.968331 
2380.000000	89.994835 
2379.000000	90.025229 
2378.000000	90.061287 
2377.000000	90.104002 
2376.000000	90.158971 
2375.000000	90.230706 
2374.000000	90.316609 
2373.000000	90.410206 
2372.000000	90.503155 
2371.000000	90.583402 
2370.000000	90.642637 
2369.000000	90.686588 
2368.000000	90.722242 
2367.000000	90.736716 
2366.000000	90.714453 
2365.000000	90.678957 
2364.000000	90.685596 
2363.000000	90.759912 
2362.000000	90.868408 
2361.000000	90.965985 
2360.000000	91.043360 
2359.000000	91.106624 
2358.000000	91.150033 
2357.000000	91.174604 
2356.000000	91.204821 
2355.000000	91.267314 
2354.000000	91.357022 
2353.000000	91.445409 
2352.000000	91.502950 
2351.000000	91.521707 
2350.000000	91.527483 
2349.000000	91.556579 
2348.000000	91.622009 
2347.000000	91.694453 
2346.000000	91.731129 
2345.000000	91.728557 
2344.000000	91.720111 
2343.000000	91.729606 
2342.000000	91.745563 
2341.000000	91.761114 
2340.000000	91.790911 
2339.000000	91.845283 
2338.000000	91.914211 
2337.000000	91.981948 
2336.000000	92.048185 
2335.000000	92.116328 
2334.000000	92.182514 
2333.000000	92.235663 
2332.000000	92.271671 
2331.000000	92.287496 
2330.000000	92.286358 
2329.000000	92.266207 
2328.000000	92.227928 
2327.000000	92.167180 
2326.000000	92.091511 
2325.000000	92.025685 
2324.000000	91.995470 
2323.000000	92.002707 
2322.000000	92.023029 
2321.000000	92.040927 
2320.000000	92.064579 
2319.000000	92.103623 
2318.000000	92.154697 
2317.000000	92.206178 
2316.000000	92.251961 
2315.000000	92.281014 
2314.000000	92.283012 
2313.000000	92.252917 
2312.000000	92.199719 
2311.000000	92.129340 
2310.000000	92.047206 
2309.000000	91.962601 
2308.000000	91.891604 
2307.000000	91.837403 
2306.000000	91.788878 
2305.000000	91.731145 
2304.000000	91.659017 
2303.000000	91.573196 
2302.000000	91.481729 
2301.000000	91.398181 
2300.000000	91.334016 
2299.000000	91.282617 
2298.000000	91.228269 
2297.000000	91.165493 
2296.000000	91.107146 
2295.000000	91.067031 
2294.000000	91.050446 
2293.000000	91.057316 
2292.000000	91.085442 
2291.000000	91.126897 
2290.000000	91.175121 
2289.000000	91.237686 
2288.000000	91.329567 
2287.000000	91.450682 
2286.000000	91.581286 
2285.000000	91.704042 
2284.000000	91.817354 
2283.000000	91.924369 
2282.000000	92.022234 
2281.000000	92.109984 
2280.000000	92.193436 
2279.000000	92.275390 
2278.000000	92.352610 
2277.000000	92.428825 
2276.000000	92.516139 
2275.000000	92.614421 
2274.000000	92.703723 
2273.000000	92.766713 
2272.000000	92.808109 
2271.000000	92.843184 
2270.000000	92.880345 
2269.000000	92.922742 
2268.000000	92.972393 
2267.000000	93.020842 
2266.000000	93.047732 
2265.000000	93.040817 
2264.000000	93.009812 
2263.000000	92.971595 
2262.000000	92.930107 
2261.000000	92.877219 
2260.000000	92.805117 
2259.000000	92.714518 
2258.000000	92.618148 
2257.000000	92.535745 
2256.000000	92.472318 
2255.000000	92.402488 
2254.000000	92.293011 
2253.000000	92.142963 
2252.000000	91.987715 
2251.000000	91.864862 
2250.000000	91.794129 
2249.000000	91.784879 
2248.000000	91.837619 
2247.000000	91.933670 
2246.000000	92.044296 
2245.000000	92.155129 
2244.000000	92.266686 
2243.000000	92.374367 
2242.000000	92.473214 
2241.000000	92.582057 
2240.000000	92.731286 
2239.000000	92.916819 
2238.000000	93.092756 
2237.000000	93.220494 
2236.000000	93.301927 
2235.000000	93.356436 
2234.000000	93.395096 
2233.000000	93.431766 
2232.000000	93.488955 
2231.000000	93.571338 
2230.000000	93.655172 
2229.000000	93.721934 
2228.000000	93.782986 
2227.000000	93.854479 
2226.000000	93.927282 
2225.000000	93.978537 
2224.000000	93.997765 
2223.000000	93.990238 
2222.000000	93.971608 
2221.000000	93.967077 
2220.000000	93.994933 
2219.000000	94.043243 
2218.000000	94.083623 
2217.000000	94.110882 
2216.000000	94.142978 
2215.000000	94.180849 
2214.000000	94.204986 
2213.000000	94.219432 
2212.000000	94.257367 
2211.000000	94.325347 
2210.000000	94.380730 
2209.000000	94.388317 
2208.000000	94.367614 
2207.000000	94.359863 
2206.000000	94.377995 
2205.000000	94.412675 
2204.000000	94.459279 
2203.000000	94.513869 
2202.000000	94.564440 
2201.000000	94.604630 
2200.000000	94.634046 
2199.000000	94.635135 
2198.000000	94.584198 
2197.000000	94.500942 
2196.000000	94.446714 
2195.000000	94.448976 
2194.000000	94.464558 
2193.000000	94.443408 
2192.000000	94.393048 
2191.000000	94.350622 
2190.000000	94.327421 
2189.000000	94.315905 
2188.000000	94.319130 
2187.000000	94.334088 
2186.000000	94.330774 
2185.000000	94.286892 
2184.000000	94.226444 
2183.000000	94.190432 
2182.000000	94.185305 
2181.000000	94.187882 
2180.000000	94.182611 
2179.000000	94.167222 
2178.000000	94.139108 
2177.000000	94.098440 
2176.000000	94.047692 
2175.000000	93.974517 
2174.000000	93.860668 
2173.000000	93.720811 
2172.000000	93.600693 
2171.000000	93.521867 
2170.000000	93.460799 
2169.000000	93.396591 
2168.000000	93.341776 
2167.000000	93.302839 
2166.000000	93.247357 
2165.000000	93.143265 
2164.000000	93.005366 
2163.000000	92.878035 
2162.000000	92.803503 
2161.000000	92.826257 
2160.000000	92.976448 
2159.000000	93.207428 
2158.000000	93.399468 
2157.000000	93.472500 
2156.000000	93.448994 
2155.000000	93.386459 
2154.000000	93.310752 
2153.000000	93.231078 
2152.000000	93.163408 
2151.000000	93.112371 
2150.000000	93.068003 
2149.000000	93.041106 
2148.000000	93.063479 
2147.000000	93.129307 
2146.000000	93.173915 
2145.000000	93.139908 
2144.000000	93.035492 
2143.000000	92.902084 
2142.000000	92.756911 
2141.000000	92.597136 
2140.000000	92.432726 
2139.000000	92.281549 
2138.000000	92.144440 
2137.000000	92.006840 
2136.000000	91.855537 
2135.000000	91.682000 
2134.000000	91.482801 
2133.000000	91.265521 
2132.000000	91.038686 
2131.000000	90.790940 
2130.000000	90.498416 
2129.000000	90.156855 
2128.000000	89.787389 
2127.000000	89.406881 
2126.000000	89.014368 
2125.000000	88.611476 
2124.000000	88.211582 
2123.000000	87.818841 
2122.000000	87.420546 
2121.000000	87.014005 
2120.000000	86.623979 
2119.000000	86.279214 
2118.000000	85.983339 
2117.000000	85.720425 
2116.000000	85.481433 
2115.000000	85.275788 
2114.000000	85.120472 
2113.000000	85.022492 
2112.000000	84.969969 
2111.000000	84.941242 
2110.000000	84.927090 
2109.000000	84.941732 
2108.000000	85.006715 
2107.000000	85.128479 
2106.000000	85.298278 
2105.000000	85.505713 
2104.000000	85.739921 
2103.000000	85.983347 
2102.000000	86.220851 
2101.000000	86.455925 
2100.000000	86.705243 
2099.000000	86.976197 
2098.000000	87.260011 
2097.000000	87.543707 
2096.000000	87.814868 
2095.000000	88.058189 
2094.000000	88.266168 
2093.000000	88.453745 
2092.000000	88.643361 
2091.000000	88.833032 
2090.000000	88.996476 
2089.000000	89.117394 
2088.000000	89.206555 
2087.000000	89.281879 
2086.000000	89.350930 
2085.000000	89.417271 
2084.000000	89.484296 
2083.000000	89.546702 
2082.000000	89.595758 
2081.000000	89.637424 
2080.000000	89.687138 
2079.000000	89.744099 
2078.000000	89.792188 
2077.000000	89.829710 
2076.000000	89.874305 
2075.000000	89.933429 
2074.000000	89.996247 
2073.000000	90.061664 
2072.000000	90.146839 
2071.000000	90.257490 
2070.000000	90.376184 
2069.000000	90.491467 
2068.000000	90.613278 
2067.000000	90.747119 
2066.000000	90.878585 
2065.000000	90.997459 
2064.000000	91.113618 
2063.000000	91.236376 
2062.000000	91.363145 
2061.000000	91.498245 
2060.000000	91.652839 
2059.000000	91.814429 
2058.000000	91.949757 
2057.000000	92.053830 
2056.000000	92.160622 
2055.000000	92.284303 
2054.000000	92.387985 
2053.000000	92.441399 
2052.000000	92.476276 
2051.000000	92.549037 
2050.000000	92.672083 
2049.000000	92.812746 
2048.000000	92.943620 
2047.000000	93.058886 
2046.000000	93.152669 
2045.000000	93.217557 
2044.000000	93.255128 
2043.000000	93.262996 
2042.000000	93.228801 
2041.000000	93.157113 
2040.000000	93.076081 
2039.000000	92.997580 
2038.000000	92.905205 
2037.000000	92.803345 
2036.000000	92.738714 
2035.000000	92.743011 
2034.000000	92.789822 
2033.000000	92.836068 
2032.000000	92.868488 
2031.000000	92.884506 
2030.000000	92.878258 
2029.000000	92.880833 
2028.000000	92.961895 
2027.000000	93.145811 
2026.000000	93.367030 
2025.000000	93.548799 
2024.000000	93.690786 
2023.000000	93.837131 
2022.000000	93.997892 
2021.000000	94.153453 
2020.000000	94.303924 
2019.000000	94.459467 
2018.000000	94.599932 
2017.000000	94.691636 
2016.000000	94.733136 
2015.000000	94.747758 
2014.000000	94.749811 
2013.000000	94.751058 
2012.000000	94.776037 
2011.000000	94.838696 
2010.000000	94.925674 
2009.000000	95.028862 
2008.000000	95.167797 
2007.000000	95.347402 
2006.000000	95.518309 
2005.000000	95.615261 
2004.000000	95.620192 
2003.000000	95.564502 
2002.000000	95.493161 
2001.000000	95.444909 
2000.000000	95.436590 
1999.000000	95.445446 
1998.000000	95.428857 
1997.000000	95.375890 
1996.000000	95.318828 
1995.000000	95.288201 
1994.000000	95.288575 
1993.000000	95.322762 
1992.000000	95.394976 
1991.000000	95.473069 
1990.000000	95.494557 
1989.000000	95.437494 
1988.000000	95.350206 
1987.000000	95.289426 
1986.000000	95.261920 
1985.000000	95.245664 
1984.000000	95.230725 
1983.000000	95.214731 
1982.000000	95.193834 
1981.000000	95.185641 
1980.000000	95.229176 
1979.000000	95.333644 
1978.000000	95.455350 
1977.000000	95.551171 
1976.000000	95.619692 
1975.000000	95.666131 
1974.000000	95.679261 
1973.000000	95.668206 
1972.000000	95.667980 
1971.000000	95.682900 
1970.000000	95.675093 
1969.000000	95.631638 
1968.000000	95.592428 
1967.000000	95.584813 
1966.000000	95.581872 
1965.000000	95.558205 
1964.000000	95.538035 
1963.000000	95.556658 
1962.000000	95.615050 
1961.000000	95.692801 
1960.000000	95.768284 
1959.000000	95.812044 
1958.000000	95.804555 
1957.000000	95.777222 
1956.000000	95.790007 
1955.000000	95.851762 
1954.000000	95.906327 
1953.000000	95.913684 
1952.000000	95.899043 
1951.000000	95.901256 
1950.000000	95.921403 
1949.000000	95.947717 
1948.000000	95.984944 
1947.000000	96.029673 
1946.000000	96.056989 
1945.000000	96.061287 
1944.000000	96.075069 
1943.000000	96.119295 
1942.000000	96.168249 
1941.000000	96.193326 
1940.000000	96.203809 
1939.000000	96.215482 
1938.000000	96.221850 
1937.000000	96.223376 
1936.000000	96.246957 
1935.000000	96.305120 
1934.000000	96.366613 
1933.000000	96.397786 
1932.000000	96.407714 
1931.000000	96.425568 
1930.000000	96.459786 
1929.000000	96.504131 
1928.000000	96.556185 
1927.000000	96.605302 
1926.000000	96.627841 
1925.000000	96.618420 
1924.000000	96.604298 
1923.000000	96.608020 
1922.000000	96.620521 
1921.000000	96.632939 
1920.000000	96.661889 
1919.000000	96.715583 
1918.000000	96.763168 
1917.000000	96.772041 
1916.000000	96.754734 
1915.000000	96.741987 
1914.000000	96.737494 
1913.000000	96.727902 
1912.000000	96.714389 
1911.000000	96.708669 
1910.000000	96.711824 
1909.000000	96.718748 
1908.000000	96.729949 
1907.000000	96.741328 
1906.000000	96.739460 
1905.000000	96.724191 
1904.000000	96.717702 
1903.000000	96.733607 
1902.000000	96.755210 
1901.000000	96.759860 
1900.000000	96.746588 
1899.000000	96.724753 
1898.000000	96.697133 
1897.000000	96.672137 
1896.000000	96.671134 
1895.000000	96.701962 
1894.000000	96.742005 
1893.000000	96.766895 
1892.000000	96.778873 
1891.000000	96.792396 
1890.000000	96.812386 
1889.000000	96.840121 
1888.000000	96.881499 
1887.000000	96.934630 
1886.000000	96.986051 
1885.000000	97.030697 
1884.000000	97.078594 
1883.000000	97.129810 
1882.000000	97.164230 
1881.000000	97.171685 
1880.000000	97.170529 
1879.000000	97.179571 
1878.000000	97.193250 
1877.000000	97.201588 
1876.000000	97.212362 
1875.000000	97.233916 
1874.000000	97.256159 
1873.000000	97.267241 
1872.000000	97.270404 
1871.000000	97.268278 
1870.000000	97.251562 
1869.000000	97.223094 
1868.000000	97.208356 
1867.000000	97.217096 
1866.000000	97.226590 
1865.000000	97.218374 
1864.000000	97.202364 
1863.000000	97.193438 
1862.000000	97.186403 
1861.000000	97.170352 
1860.000000	97.149668 
1859.000000	97.132783 
1858.000000	97.117008 
1857.000000	97.100307 
1856.000000	97.089609 
1855.000000	97.082778 
1854.000000	97.062326 
1853.000000	97.022339 
1852.000000	96.982127 
1851.000000	96.958032 
1850.000000	96.942356 
1849.000000	96.924191 
1848.000000	96.909453 
1847.000000	96.902517 
1846.000000	96.888496 
1845.000000	96.855218 
1844.000000	96.819402 
1843.000000	96.802535 
1842.000000	96.799527 
1841.000000	96.798363 
1840.000000	96.800957 
1839.000000	96.811937 
1838.000000	96.827762 
1837.000000	96.848586 
1836.000000	96.883293 
1835.000000	96.929926 
1834.000000	96.970854 
1833.000000	97.000039 
1832.000000	97.035470 
1831.000000	97.091684 
1830.000000	97.154910 
1829.000000	97.202953 
1828.000000	97.236867 
1827.000000	97.267445 
1826.000000	97.290498 
1825.000000	97.300060 
1824.000000	97.306489 
1823.000000	97.318430 
1822.000000	97.328245 
1821.000000	97.333093 
1820.000000	97.349624 
1819.000000	97.389290 
1818.000000	97.434649 
1817.000000	97.459920 
1816.000000	97.460358 
1815.000000	97.443451 
1814.000000	97.410216 
1813.000000	97.365900 
1812.000000	97.332473 
1811.000000	97.326208 
1810.000000	97.333196 
1809.000000	97.329733 
1808.000000	97.313642 
1807.000000	97.296758 
1806.000000	97.283213 
1805.000000	97.271192 
1804.000000	97.261729 
1803.000000	97.252540 
1802.000000	97.237087 
1801.000000	97.221803 
1800.000000	97.225728 
1799.000000	97.248966 
1798.000000	97.265402 
1797.000000	97.259101 
1796.000000	97.245237 
1795.000000	97.243961 
1794.000000	97.253367 
1793.000000	97.262796 
1792.000000	97.275769 
1791.000000	97.293637 
1790.000000	97.299882 
1789.000000	97.287644 
1788.000000	97.274718 
1787.000000	97.278393 
1786.000000	97.291590 
1785.000000	97.296759 
1784.000000	97.293349 
1783.000000	97.292416 
1782.000000	97.295086 
1781.000000	97.295494 
1780.000000	97.294941 
1779.000000	97.296832 
1778.000000	97.296990 
1777.000000	97.291837 
1776.000000	97.284832 
1775.000000	97.276049 
1774.000000	97.256623 
1773.000000	97.228627 
1772.000000	97.216209 
1771.000000	97.227734 
1770.000000	97.238770 
1769.000000	97.233096 
1768.000000	97.221493 
1767.000000	97.215924 
1766.000000	97.209332 
1765.000000	97.194482 
1764.000000	97.179658 
1763.000000	97.173056 
1762.000000	97.167773 
1761.000000	97.156757 
1760.000000	97.148442 
1759.000000	97.148042 
1758.000000	97.141576 
1757.000000	97.116922 
1756.000000	97.085536 
1755.000000	97.062370 
1754.000000	97.041731 
1753.000000	97.012312 
1752.000000	96.978468 
1751.000000	96.950883 
1750.000000	96.923860 
1749.000000	96.887678 
1748.000000	96.850034 
1747.000000	96.819100 
1746.000000	96.786725 
1745.000000	96.746741 
1744.000000	96.711365 
1743.000000	96.691870 
1742.000000	96.678480 
1741.000000	96.658653 
1740.000000	96.637754 
1739.000000	96.621521 
1738.000000	96.598854 
1737.000000	96.564685 
1736.000000	96.534123 
1735.000000	96.519266 
1734.000000	96.505390 
1733.000000	96.472414 
1732.000000	96.432123 
1731.000000	96.404711 
1730.000000	96.388104 
1729.000000	96.374126 
1728.000000	96.364652 
1727.000000	96.358704 
1726.000000	96.342499 
1725.000000	96.309432 
1724.000000	96.274197 
1723.000000	96.248283 
1722.000000	96.220472 
1721.000000	96.180340 
1720.000000	96.137383 
1719.000000	96.101716 
1718.000000	96.066341 
1717.000000	96.028963 
1716.000000	96.009793 
1715.000000	96.017285 
1714.000000	96.030150 
1713.000000	96.033606 
1712.000000	96.041550 
1711.000000	96.066197 
1710.000000	96.094143 
1709.000000	96.110880 
1708.000000	96.127978 
1707.000000	96.160532 
1706.000000	96.194507 
1705.000000	96.205959 
1704.000000	96.201392 
1703.000000	96.202534 
1702.000000	96.209694 
1701.000000	96.206607 
1700.000000	96.199883 
1699.000000	96.199931 
1698.000000	96.186190 
1697.000000	96.146736 
1696.000000	96.101124 
1695.000000	96.069094 
1694.000000	96.037130 
1693.000000	95.992441 
1692.000000	95.945191 
1691.000000	95.904138 
1690.000000	95.853824 
1689.000000	95.779286 
1688.000000	95.697266 
1687.000000	95.631640 
1686.000000	95.574486 
1685.000000	95.502675 
1684.000000	95.432241 
1683.000000	95.377598 
1682.000000	95.304778 
1681.000000	95.200407 
1680.000000	95.090672 
1679.000000	95.002407 
1678.000000	94.925824 
1677.000000	94.839067 
1676.000000	94.749270 
1675.000000	94.676315 
1674.000000	94.605735 
1673.000000	94.517591 
1672.000000	94.430545 
1671.000000	94.367584 
1670.000000	94.310381 
1669.000000	94.227215 
1668.000000	94.131309 
1667.000000	94.046884 
1666.000000	93.955057 
1665.000000	93.821581 
1664.000000	93.642679 
1663.000000	93.433354 
1662.000000	93.183934 
1661.000000	92.873218 
1660.000000	92.507624 
1659.000000	92.097746 
1658.000000	91.633150 
1657.000000	91.108663 
1656.000000	90.527054 
1655.000000	89.801314 
1654.000000	88.693451 
1653.000000	87.187373 
1652.000000	85.805798 
1651.000000	84.818361 
1650.000000	84.025237 
1649.000000	83.197703 
1648.000000	82.290823 
1647.000000	81.455357 
1646.000000	80.849102 
1645.000000	80.462173 
1644.000000	80.233821 
1643.000000	80.123910 
1642.000000	80.058859 
1641.000000	79.950921 
1640.000000	79.777384 
1639.000000	79.557712 
1638.000000	79.232792 
1637.000000	78.642928 
1636.000000	77.711615 
1635.000000	76.611376 
1634.000000	75.531271 
1633.000000	74.461247 
1632.000000	73.339235 
1631.000000	72.139006 
1630.000000	70.806313 
1629.000000	69.265155 
1628.000000	67.551200 
1627.000000	65.811325 
1626.000000	64.082806 
1625.000000	62.216012 
1624.000000	60.104442 
1623.000000	57.920263 
1622.000000	55.974526 
1621.000000	54.382488 
1620.000000	53.068568 
1619.000000	51.929621 
1618.000000	50.845154 
1617.000000	49.703376 
1616.000000	48.566672 
1615.000000	47.618190 
1614.000000	46.889527 
1613.000000	46.287454 
1612.000000	45.817031 
1611.000000	45.631493 
1610.000000	45.848473 
1609.000000	46.413473 
1608.000000	47.191560 
1607.000000	48.059224 
1606.000000	48.867051 
1605.000000	49.449847 
1604.000000	49.725053 
1603.000000	49.712860 
1602.000000	49.445490 
1601.000000	48.923874 
1600.000000	48.180211 
1599.000000	47.299209 
1598.000000	46.335007 
1597.000000	45.270084 
1596.000000	44.095492 
1595.000000	42.864417 
1594.000000	41.616417 
1593.000000	40.317151 
1592.000000	38.932367 
1591.000000	37.495458 
1590.000000	36.052361 
1589.000000	34.610985 
1588.000000	33.206439 
1587.000000	31.949052 
1586.000000	30.937299 
1585.000000	30.177436 
1584.000000	29.649651 
1583.000000	29.380520 
1582.000000	29.372237 
1581.000000	29.533459 
1580.000000	29.770768 
1579.000000	30.090022 
1578.000000	30.545834 
1577.000000	31.138417 
1576.000000	31.800697 
1575.000000	32.465224 
1574.000000	33.088432 
1573.000000	33.644331 
1572.000000	34.161220 
1571.000000	34.733784 
1570.000000	35.417134 
1569.000000	36.110430 
1568.000000	36.690517 
1567.000000	37.183764 
1566.000000	37.676981 
1565.000000	38.184655 
1564.000000	38.665220 
1563.000000	39.107669 
1562.000000	39.543480 
1561.000000	40.023816 
1560.000000	40.649030 
1559.000000	41.501591 
1558.000000	42.369795 
1557.000000	43.005030 
1556.000000	43.470788 
1555.000000	43.932790 
1554.000000	44.456881 
1553.000000	44.972218 
1552.000000	45.411657 
1551.000000	45.811505 
1550.000000	46.230790 
1549.000000	46.650086 
1548.000000	47.025294 
1547.000000	47.389413 
1546.000000	47.822176 
1545.000000	48.355010 
1544.000000	48.957022 
1543.000000	49.618482 
1542.000000	50.395173 
1541.000000	51.363397 
1540.000000	52.531130 
1539.000000	53.748700 
1538.000000	54.821317 
1537.000000	55.705345 
1536.000000	56.495469 
1535.000000	57.329518 
1534.000000	58.266159 
1533.000000	59.182859 
1532.000000	59.914313 
1531.000000	60.442306 
1530.000000	60.813353 
1529.000000	61.025006 
1528.000000	61.041495 
1527.000000	60.841032 
1526.000000	60.431336 
1525.000000	59.850020 
1524.000000	59.133097 
1523.000000	58.268695 
1522.000000	57.252445 
1521.000000	56.230206 
1520.000000	55.417740 
1519.000000	54.864425 
1518.000000	54.504256 
1517.000000	54.305388 
1516.000000	54.265060 
1515.000000	54.335555 
1514.000000	54.436961 
1513.000000	54.502793 
1512.000000	54.492556 
1511.000000	54.397583 
1510.000000	54.229283 
1509.000000	53.990514 
1508.000000	53.689881 
1507.000000	53.430048 
1506.000000	53.382403 
1505.000000	53.583035 
1504.000000	53.955190 
1503.000000	54.448102 
1502.000000	55.053458 
1501.000000	55.767547 
1500.000000	56.571077 
1499.000000	57.449368 
1498.000000	58.412845 
1497.000000	59.465341 
1496.000000	60.556465 
1495.000000	61.611583 
1494.000000	62.600508 
1493.000000	63.544503 
1492.000000	64.493444 
1491.000000	65.495224 
1490.000000	66.535958 
1489.000000	67.531356 
1488.000000	68.431650 
1487.000000	69.264308 
1486.000000	70.046005 
1485.000000	70.745468 
1484.000000	71.351849 
1483.000000	71.911691 
1482.000000	72.470020 
1481.000000	73.017467 
1480.000000	73.529580 
1479.000000	74.014387 
1478.000000	74.476522 
1477.000000	74.882150 
1476.000000	75.203201 
1475.000000	75.449289 
1474.000000	75.605906 
1473.000000	75.605454 
1472.000000	75.420719 
1471.000000	75.090393 
1470.000000	74.603090 
1469.000000	73.886330 
1468.000000	72.887037 
1467.000000	71.571892 
1466.000000	69.907716 
1465.000000	68.006059 
1464.000000	66.231206 
1463.000000	64.874606 
1462.000000	63.836936 
1461.000000	62.786295 
1460.000000	61.404736 
1459.000000	59.411422 
1458.000000	56.587457 
1457.000000	53.251362 
1456.000000	50.458119 
1455.000000	48.868493 
1454.000000	48.328507 
1453.000000	48.569375 
1452.000000	49.462166 
1451.000000	50.857066 
1450.000000	52.544776 
1449.000000	54.353496 
1448.000000	56.143574 
1447.000000	57.790140 
1446.000000	59.275187 
1445.000000	60.708092 
1444.000000	62.221044 
1443.000000	63.885180 
1442.000000	65.680375 
1441.000000	67.491577 
1440.000000	69.172906 
1439.000000	70.663616 
1438.000000	72.008239 
1437.000000	73.217518 
1436.000000	74.175044 
1435.000000	74.817934 
1434.000000	75.246504 
1433.000000	75.558638 
1432.000000	75.760835 
1431.000000	75.836467 
1430.000000	75.802480 
1429.000000	75.671059 
1428.000000	75.427343 
1427.000000	75.065279 
1426.000000	74.569725 
1425.000000	73.875254 
1424.000000	72.935195 
1423.000000	71.799848 
1422.000000	70.479173 
1421.000000	68.759732 
1420.000000	66.307976 
1419.000000	63.085814 
1418.000000	59.491465 
1417.000000	55.838868 
1416.000000	52.164696 
1415.000000	48.525356 
1414.000000	45.095037 
1413.000000	42.093008 
1412.000000	39.787508 
1411.000000	38.438533 
1410.000000	38.108766 
1409.000000	38.660962 
1408.000000	39.964868 
1407.000000	41.949416 
1406.000000	44.484515 
1405.000000	47.350857 
1404.000000	50.311052 
1403.000000	53.172687 
1402.000000	55.857038 
1401.000000	58.428265 
1400.000000	60.985227 
1399.000000	63.487132 
1398.000000	65.776132 
1397.000000	67.799841 
1396.000000	69.652445 
1395.000000	71.399501 
1394.000000	72.982220 
1393.000000	74.324726 
1392.000000	75.440831 
1391.000000	76.397165 
1390.000000	77.249826 
1389.000000	78.026578 
1388.000000	78.725558 
1387.000000	79.320996 
1386.000000	79.785326 
1385.000000	80.095777 
1384.000000	80.199348 
1383.000000	79.977137 
1382.000000	79.268195 
1381.000000	77.986530 
1380.000000	76.295082 
1379.000000	74.676483 
1378.000000	73.693285 
1377.000000	73.569176 
1376.000000	74.055572 
1375.000000	74.677953 
1374.000000	75.051334 
1373.000000	75.021617 
1372.000000	74.582973 
1371.000000	73.737888 
1370.000000	72.454831 
1369.000000	70.699503 
1368.000000	68.482477 
1367.000000	65.872393 
1366.000000	62.932933 
1365.000000	59.662128 
1364.000000	56.076786 
1363.000000	52.404049 
1362.000000	49.079610 
1361.000000	46.431585 
1360.000000	44.483166 
1359.000000	43.116329 
1358.000000	42.280675 
1357.000000	42.029945 
1356.000000	42.445938 
1355.000000	43.543601 
1354.000000	45.211507 
1353.000000	47.242482 
1352.000000	49.435688 
1351.000000	51.661119 
1350.000000	53.840886 
1349.000000	55.915868 
1348.000000	57.851653 
1347.000000	59.651524 
1346.000000	61.337352 
1345.000000	62.919421 
1344.000000	64.393784 
1343.000000	65.762906 
1342.000000	67.045623 
1341.000000	68.263554 
1340.000000	69.423725 
1339.000000	70.519585 
1338.000000	71.547403 
1337.000000	72.514093 
1336.000000	73.429241 
1335.000000	74.298659 
1334.000000	75.125846 
1333.000000	75.911181 
1332.000000	76.648122 
1331.000000	77.326743 
1330.000000	77.942288 
1329.000000	78.494736 
1328.000000	78.980817 
1327.000000	79.392766 
1326.000000	79.722484 
1325.000000	79.959073 
1324.000000	80.084828 
1323.000000	80.081026 
1322.000000	79.933493 
1321.000000	79.624120 
1320.000000	79.121221 
1319.000000	78.384765 
1318.000000	77.370964 
1317.000000	76.016689 
1316.000000	74.221997 
1315.000000	71.861956 
1314.000000	68.833127 
1313.000000	65.122169 
1312.000000	60.865607 
1311.000000	56.347168 
1310.000000	51.921437 
1309.000000	47.938601 
1308.000000	44.716547 
1307.000000	42.497468 
1306.000000	41.367813 
1305.000000	41.240236 
1304.000000	41.928549 
1303.000000	43.214840 
1302.000000	44.869486 
1301.000000	46.684453 
1300.000000	48.524633 
1299.000000	50.334306 
1298.000000	52.094991 
1297.000000	53.795688 
1296.000000	55.435518 
1295.000000	57.021391 
1294.000000	58.548580 
1293.000000	59.996515 
1292.000000	61.349370 
1291.000000	62.609467 
1290.000000	63.786099 
1289.000000	64.882263 
1288.000000	65.899875 
1287.000000	66.849876 
1286.000000	67.747115 
1285.000000	68.597999 
1284.000000	69.400853 
1283.000000	70.156681 
1282.000000	70.872701 
1281.000000	71.555858 
1280.000000	72.209290 
1279.000000	72.835485 
1278.000000	73.436944 
1277.000000	74.013174 
1276.000000	74.562975 
1275.000000	75.090229 
1274.000000	75.600950 
1273.000000	76.093944 
1272.000000	76.562021 
1271.000000	77.003955 
1270.000000	77.426569 
1269.000000	77.832349 
1268.000000	78.214932 
1267.000000	78.571034 
1266.000000	78.906629 
1265.000000	79.225999 
1264.000000	79.525316 
1263.000000	79.803750 
1262.000000	80.069857 
1261.000000	80.328166 
1260.000000	80.569305 
1259.000000	80.783216 
1258.000000	80.973676 
1257.000000	81.150392 
1256.000000	81.315210 
1255.000000	81.464717 
1254.000000	81.596992 
1253.000000	81.705638 
1252.000000	81.774810 
1251.000000	81.789638 
1250.000000	81.743275 
1249.000000	81.622676 
1248.000000	81.393309 
1247.000000	81.004541 
1246.000000	80.398510 
1245.000000	79.500367 
1244.000000	78.206334 
1243.000000	76.396004 
1242.000000	73.968276 
1241.000000	70.900714 
1240.000000	67.338169 
1239.000000	63.653981 
1238.000000	60.383255 
1237.000000	58.041702 
1236.000000	56.958741 
1235.000000	57.187807 
1234.000000	58.502466 
1233.000000	60.507574 
1232.000000	62.813238 
1231.000000	65.146081 
1230.000000	67.354662 
1229.000000	69.366689 
1228.000000	71.154467 
1227.000000	72.719644 
1226.000000	74.083195 
1225.000000	75.272283 
1224.000000	76.310896 
1223.000000	77.219665 
1222.000000	78.016511 
1221.000000	78.713378 
1220.000000	79.319520 
1219.000000	79.853109 
1218.000000	80.341711 
1217.000000	80.805176 
1216.000000	81.245335 
1215.000000	81.656815 
1214.000000	82.037889 
1213.000000	82.385809 
1212.000000	82.695208 
1211.000000	82.971018 
1210.000000	83.230853 
1209.000000	83.483934 
1208.000000	83.719885 
1207.000000	83.929289 
1206.000000	84.122034 
1205.000000	84.312081 
1204.000000	84.497471 
1203.000000	84.670983 
1202.000000	84.838090 
1201.000000	85.006066 
1200.000000	85.164609 
1199.000000	85.296652 
1198.000000	85.403688 
1197.000000	85.504041 
1196.000000	85.610013 
1195.000000	85.720562 
1194.000000	85.831319 
1193.000000	85.938033 
1192.000000	86.034354 
1191.000000	86.118879 
1190.000000	86.200832 
1189.000000	86.288553 
1188.000000	86.377935 
1187.000000	86.461632 
1186.000000	86.541771 
1185.000000	86.622612 
1184.000000	86.699525 
1183.000000	86.768318 
1182.000000	86.837254 
1181.000000	86.915003 
1180.000000	86.992344 
1179.000000	87.050085 
1178.000000	87.081157 
1177.000000	87.092344 
1176.000000	87.088713 
1175.000000	87.068516 
1174.000000	87.029002 
1173.000000	86.965433 
1172.000000	86.868036 
1171.000000	86.730522 
1170.000000	86.558712 
1169.000000	86.363202 
1168.000000	86.147972 
1167.000000	85.910451 
1166.000000	85.642335 
1165.000000	85.321842 
1164.000000	84.913557 
1163.000000	84.382925 
1162.000000	83.700639 
1161.000000	82.824830 
1160.000000	81.691770 
1159.000000	80.238864 
1158.000000	78.437259 
1157.000000	76.310009 
1156.000000	73.946887 
1155.000000	71.515432 
1154.000000	69.238386 
1153.000000	67.342667 
1152.000000	66.015897 
1151.000000	65.368354 
1150.000000	65.399029 
1149.000000	66.011337 
1148.000000	67.078526 
1147.000000	68.483948 
1146.000000	70.108729 
1145.000000	71.822448 
1144.000000	73.509330 
1143.000000	75.096139 
1142.000000	76.550464 
1141.000000	77.861815 
1140.000000	79.030708 
1139.000000	80.067062 
1138.000000	80.984002 
1137.000000	81.788782 
1136.000000	82.486023 
1135.000000	83.090161 
1134.000000	83.624793 
1133.000000	84.105889 
1132.000000	84.532990 
1131.000000	84.897870 
1130.000000	85.192066 
1129.000000	85.404154 
1128.000000	85.520598 
1127.000000	85.531206 
1126.000000	85.420531 
1125.000000	85.148890 
1124.000000	84.651198 
1123.000000	83.849213 
1122.000000	82.637143 
1121.000000	80.840500 
1120.000000	78.215067 
1119.000000	74.540066 
1118.000000	69.783221 
1117.000000	64.260215 
1116.000000	58.682797 
1115.000000	53.968156 
1114.000000	50.834084 
1113.000000	49.506158 
1112.000000	49.800029 
1111.000000	51.392140 
1110.000000	53.959751 
1109.000000	57.163988 
1108.000000	60.635304 
1107.000000	64.031434 
1106.000000	67.113674 
1105.000000	69.770100 
1104.000000	71.981734 
1103.000000	73.781918 
1102.000000	75.233764 
1101.000000	76.415880 
1100.000000	77.415303 
1099.000000	78.322543 
1098.000000	79.205305 
1097.000000	80.072817 
1096.000000	80.883749 
1095.000000	81.601747 
1094.000000	82.229297 
1093.000000	82.783528 
1092.000000	83.269580 
1091.000000	83.696919 
1090.000000	84.094157 
1089.000000	84.481464 
1088.000000	84.848164 
1087.000000	85.180496 
1086.000000	85.491112 
1085.000000	85.796857 
1084.000000	86.087937 
1083.000000	86.346896 
1082.000000	86.581634 
1081.000000	86.812484 
1080.000000	87.041072 
1079.000000	87.257623 
1078.000000	87.464402 
1077.000000	87.666329 
1076.000000	87.853749 
1075.000000	88.021732 
1074.000000	88.191467 
1073.000000	88.383615 
1072.000000	88.583449 
1071.000000	88.760679 
1070.000000	88.912204 
1069.000000	89.056770 
1068.000000	89.197934 
1067.000000	89.322292 
1066.000000	89.426995 
1065.000000	89.521052 
1064.000000	89.604872 
1063.000000	89.673918 
1062.000000	89.737391 
1061.000000	89.810920 
1060.000000	89.897134 
1059.000000	89.992435 
1058.000000	90.101537 
1057.000000	90.222999 
1056.000000	90.331821 
1055.000000	90.402105 
1054.000000	90.440326 
1053.000000	90.472576 
1052.000000	90.506073 
1051.000000	90.529484 
1050.000000	90.545224 
1049.000000	90.572365 
1048.000000	90.621396 
1047.000000	90.691847 
1046.000000	90.787544 
1045.000000	90.910127 
1044.000000	91.044800 
1043.000000	91.173414 
1042.000000	91.294852 
1041.000000	91.413820 
1040.000000	91.519445 
1039.000000	91.597501 
1038.000000	91.654946 
1037.000000	91.707990 
1036.000000	91.753112 
1035.000000	91.773028 
1034.000000	91.762691 
1033.000000	91.723900 
1032.000000	91.640437 
1031.000000	91.482470 
1030.000000	91.228113 
1029.000000	90.854775 
1028.000000	90.311895 
1027.000000	89.516607 
1026.000000	88.355714 
1025.000000	86.668449 
1024.000000	84.273511 
1023.000000	81.107242 
1022.000000	77.374240 
1021.000000	73.516254 
1020.000000	69.964255 
1019.000000	66.861937 
1018.000000	64.005557 
1017.000000	61.085385 
1016.000000	58.027783 
1015.000000	55.125042 
1014.000000	52.857036 
1013.000000	51.609470 
1012.000000	51.525752 
1011.000000	52.511757 
1010.000000	54.311514 
1009.000000	56.620901 
1008.000000	59.190521 
1007.000000	61.850056 
1006.000000	64.470770 
1005.000000	66.941858 
1004.000000	69.186462 
1003.000000	71.181562 
1002.000000	72.949281 
1001.000000	74.522829 
1000.000000	75.917454 
999.000000	 77.132839 
998.000000	 78.179229 
997.000000	 79.091911 
996.000000	 79.914742 
995.000000	 80.673134 
994.000000	 81.366502 
993.000000	 81.984489 
992.000000	 82.527076 
991.000000	 83.009554 
990.000000	 83.450917 
989.000000	 83.860283 
988.000000	 84.236394 
987.000000	 84.577618 
986.000000	 84.886665 
985.000000	 85.165913 
984.000000	 85.416192 
983.000000	 85.643139 
982.000000	 85.857149 
981.000000	 86.062583 
980.000000	 86.253578 
979.000000	 86.424448 
978.000000	 86.576757 
977.000000	 86.711527 
976.000000	 86.823225 
975.000000	 86.909187 
974.000000	 86.978901 
973.000000	 87.046706 
972.000000	 87.119610 
971.000000	 87.196278 
970.000000	 87.271176 
969.000000	 87.335376 
968.000000	 87.381017 
967.000000	 87.409921 
966.000000	 87.430121 
965.000000	 87.440010 
964.000000	 87.426510 
963.000000	 87.385025 
962.000000	 87.330483 
961.000000	 87.280860 
960.000000	 87.239748 
959.000000	 87.202583 
958.000000	 87.168668 
957.000000	 87.136689 
956.000000	 87.097396 
955.000000	 87.041824 
954.000000	 86.971112 
953.000000	 86.891106 
952.000000	 86.806050 
951.000000	 86.725795 
950.000000	 86.668938 
949.000000	 86.646943 
948.000000	 86.650994 
947.000000	 86.664296 
946.000000	 86.682440 
945.000000	 86.713463 
944.000000	 86.763750 
943.000000	 86.832516 
942.000000	 86.914558 
941.000000	 86.999371 
940.000000	 87.071910 
939.000000	 87.123469 
938.000000	 87.159672 
937.000000	 87.190517 
936.000000	 87.214944 
935.000000	 87.220719 
934.000000	 87.195496 
933.000000	 87.131654 
932.000000	 87.022782 
931.000000	 86.859009 
930.000000	 86.619927 
929.000000	 86.265049 
928.000000	 85.731955 
927.000000	 84.943763 
926.000000	 83.812443 
925.000000	 82.238519 
924.000000	 80.134563 
923.000000	 77.490173 
922.000000	 74.456395 
921.000000	 71.405620 
920.000000	 68.907876 
919.000000	 67.555773 
918.000000	 67.677923 
917.000000	 69.158790 
916.000000	 71.531256 
915.000000	 74.243445 
914.000000	 76.881381 
913.000000	 79.231256 
912.000000	 81.222396 
911.000000	 82.859556 
910.000000	 84.189650 
909.000000	 85.274739 
908.000000	 86.162434 
907.000000	 86.881376 
906.000000	 87.459698 
905.000000	 87.931725 
904.000000	 88.326695 
903.000000	 88.663488 
902.000000	 88.955254 
901.000000	 89.210128 
900.000000	 89.431966 
899.000000	 89.628776 
898.000000	 89.813089 
897.000000	 89.986445 
896.000000	 90.135951 
895.000000	 90.258001 
894.000000	 90.372062 
893.000000	 90.495939 
892.000000	 90.620826 
891.000000	 90.728996 
890.000000	 90.824340 
889.000000	 90.923992 
888.000000	 91.027962 
887.000000	 91.119396 
886.000000	 91.190856 
885.000000	 91.250634 
884.000000	 91.306901 
883.000000	 91.365497 
882.000000	 91.439507 
881.000000	 91.538851 
880.000000	 91.649922 
879.000000	 91.745307 
878.000000	 91.816108 
877.000000	 91.877623 
876.000000	 91.941867 
875.000000	 92.002491 
874.000000	 92.049620 
873.000000	 92.083476 
872.000000	 92.109097 
871.000000	 92.128998 
870.000000	 92.142529 
869.000000	 92.143097 
868.000000	 92.116757 
867.000000	 92.051117 
866.000000	 91.941471 
865.000000	 91.779429 
864.000000	 91.540958 
863.000000	 91.195250 
862.000000	 90.717972 
861.000000	 90.081154 
860.000000	 89.230004 
859.000000	 88.074146 
858.000000	 86.490647 
857.000000	 84.325603 
856.000000	 81.415285 
855.000000	 77.656503 
854.000000	 73.106492 
853.000000	 68.053528 
852.000000	 63.008281 
851.000000	 58.586412 
850.000000	 55.321475 
849.000000	 53.551030 
848.000000	 53.439750 
847.000000	 54.993706 
846.000000	 57.969556 
845.000000	 61.831433 
844.000000	 65.907279 
843.000000	 69.652906 
842.000000	 72.812896 
841.000000	 75.380520 
840.000000	 77.453656 
839.000000	 79.141105 
838.000000	 80.544601 
837.000000	 81.745616 
836.000000	 82.783137 
835.000000	 83.667157 
834.000000	 84.418488 
833.000000	 85.074625 
832.000000	 85.658106 
831.000000	 86.166240 
830.000000	 86.599287 
829.000000	 86.978521 
828.000000	 87.329187 
827.000000	 87.661494 
826.000000	 87.972457 
825.000000	 88.252483 
824.000000	 88.490516 
823.000000	 88.688759 
822.000000	 88.869206 
821.000000	 89.049767 
820.000000	 89.221713 
819.000000	 89.366866 
818.000000	 89.487103 
817.000000	 89.599447 
816.000000	 89.710619 
815.000000	 89.815378 
814.000000	 89.914281 
813.000000	 90.014312 
812.000000	 90.115487 
811.000000	 90.213953 
810.000000	 90.314128 
809.000000	 90.420284 
808.000000	 90.520643 
807.000000	 90.598543 
806.000000	 90.656427 
805.000000	 90.711160 
804.000000	 90.769569 
803.000000	 90.826744 
802.000000	 90.882746 
801.000000	 90.938568 
800.000000	 90.977879 
799.000000	 90.977286 
798.000000	 90.939148 
797.000000	 90.894572 
796.000000	 90.867560 
795.000000	 90.848958 
794.000000	 90.807217 
793.000000	 90.714247 
792.000000	 90.563888 
791.000000	 90.378164 
790.000000	 90.190469 
789.000000	 90.005801 
788.000000	 89.779557 
787.000000	 89.448937 
786.000000	 88.981272 
785.000000	 88.377673 
784.000000	 87.636250 
783.000000	 86.729727 
782.000000	 85.611766 
781.000000	 84.223501 
780.000000	 82.498635 
779.000000	 80.389860 
778.000000	 77.904731 
777.000000	 75.117028 
776.000000	 72.156392 
775.000000	 69.199941 
774.000000	 66.464043 
773.000000	 64.189153 
772.000000	 62.620228 
771.000000	 61.966043 
770.000000	 62.328232 
769.000000	 63.646532 
768.000000	 65.710545 
767.000000	 68.228150 
766.000000	 70.910398 
765.000000	 73.534215 
764.000000	 75.957703 
763.000000	 78.103651 
762.000000	 79.946142 
761.000000	 81.501343 
760.000000	 82.805739 
759.000000	 83.892928 
758.000000	 84.789567 
757.000000	 85.522810 
756.000000	 86.120718 
755.000000	 86.608881 
754.000000	 87.014762 
753.000000	 87.375004 
752.000000	 87.732974 
751.000000	 88.122674 
750.000000	 88.547391 
749.000000	 88.972662 
748.000000	 89.350932 
747.000000	 89.663380 
746.000000	 89.932838 
745.000000	 90.188320 
744.000000	 90.427401 
743.000000	 90.627560 
742.000000	 90.785908 
741.000000	 90.927392 
740.000000	 91.073440 
739.000000	 91.219448 
738.000000	 91.345828 
737.000000	 91.439165 
736.000000	 91.502731 
735.000000	 91.558346 
734.000000	 91.636393 
733.000000	 91.749502 
732.000000	 91.874079 
731.000000	 91.970238 
730.000000	 92.023292 
729.000000	 92.056825 
728.000000	 92.104909 
727.000000	 92.181345 
726.000000	 92.274637 
725.000000	 92.361304 
724.000000	 92.423770 
723.000000	 92.465845 
722.000000	 92.512786 
721.000000	 92.589212 
720.000000	 92.694231 
719.000000	 92.802734 
718.000000	 92.889948 
717.000000	 92.945770 
716.000000	 92.972312 
715.000000	 92.983571 
714.000000	 93.001820 
713.000000	 93.038111 
712.000000	 93.078699 
711.000000	 93.102214 
710.000000	 93.106246 
709.000000	 93.106058 
708.000000	 93.111453 
707.000000	 93.116449 
706.000000	 93.108500 
705.000000	 93.079377 
704.000000	 93.032895 
703.000000	 92.990511 
702.000000	 92.979253 
701.000000	 93.000735 
700.000000	 93.020540 
699.000000	 93.004396 
698.000000	 92.958925 
697.000000	 92.919861 
696.000000	 92.905617 
695.000000	 92.902003 
694.000000	 92.891884 
693.000000	 92.879211 
692.000000	 92.875662 
691.000000	 92.876627 
690.000000	 92.862533 
689.000000	 92.823171 
688.000000	 92.773976 
687.000000	 92.739673 
686.000000	 92.718400 
685.000000	 92.676800 
684.000000	 92.595948 
683.000000	 92.508208 
682.000000	 92.462177 
681.000000	 92.455731 
680.000000	 92.435886 
679.000000	 92.373719 
678.000000	 92.303950 
677.000000	 92.270282 
676.000000	 92.255794 
675.000000	 92.215388 
674.000000	 92.124244 
673.000000	 91.986183 
672.000000	 91.834739 
671.000000	 91.723787 
670.000000	 91.658133 
669.000000	 91.530275 
668.000000	 91.261165 
667.000000	 90.905499 
666.000000	 90.449133 
665.000000	 89.916250 
664.000000	 89.317682 
663.000000	 88.593331 
662.000000	 87.699535 
661.000000	 86.612140 
660.000000	 85.278366 
659.000000	 83.655669 
658.000000	 81.737187 
657.000000	 79.483119 
656.000000	 76.822188 
655.000000	 73.791918 
654.000000	 70.543706 
653.000000	 67.206484 
652.000000	 63.919652 
651.000000	 60.934616 
650.000000	 58.449036 

