PE IR                   SPECTRUM    ASCII       PEDS        1.60        
  -1
~SP.SP
18/03/23
17:33:42.00
18/03/23
17:33:42.00
pili
NI
650.000000
4









SPECTRUM 100,CPU32 MAIN 00.02.8200 12-DECEMBER-2006 10:00:00
MIR TGS
MIR
OPTKBR
78890
0.200000

4.000000
STRONG
RATIO
SPECTRUM
MAGNITUDE
UNIVERSAL ATR
DOUBLE

COMBINED


0


#HDR
-1
-1
#GR
CM-1
%T
0.00002384185791015625
0.0
4000.000000
-1.000000
3351
8
99.793279
32.409742
#DATA
4000.000000	97.887025 
3999.000000	97.891470 
3998.000000	97.895921 
3997.000000	97.900357 
3996.000000	97.906675 
3995.000000	97.914670 
3994.000000	97.926653 
3993.000000	97.940021 
3992.000000	97.951896 
3991.000000	97.959327 
3990.000000	97.960953 
3989.000000	97.957640 
3988.000000	97.951241 
3987.000000	97.942962 
3986.000000	97.933343 
3985.000000	97.923216 
3984.000000	97.913494 
3983.000000	97.903950 
3982.000000	97.893560 
3981.000000	97.882871 
3980.000000	97.875200 
3979.000000	97.874052 
3978.000000	97.879296 
3977.000000	97.886665 
3976.000000	97.891386 
3975.000000	97.892009 
3974.000000	97.890693 
3973.000000	97.890564 
3972.000000	97.893591 
3971.000000	97.900693 
3970.000000	97.912359 
3969.000000	97.927617 
3968.000000	97.942417 
3967.000000	97.950734 
3966.000000	97.948923 
3965.000000	97.939281 
3964.000000	97.928443 
3963.000000	97.921750 
3962.000000	97.919142 
3961.000000	97.916977 
3960.000000	97.913110 
3959.000000	97.909263 
3958.000000	97.908864 
3957.000000	97.913638 
3956.000000	97.922546 
3955.000000	97.933259 
3954.000000	97.943933 
3953.000000	97.953652 
3952.000000	97.961889 
3951.000000	97.968013 
3950.000000	97.971299 
3949.000000	97.971389 
3948.000000	97.968885 
3947.000000	97.965583 
3946.000000	97.963730 
3945.000000	97.964789 
3944.000000	97.968547 
3943.000000	97.972943 
3942.000000	97.975113 
3941.000000	97.973582 
3940.000000	97.969372 
3939.000000	97.964471 
3938.000000	97.959826 
3937.000000	97.955231 
3936.000000	97.950528 
3935.000000	97.946156 
3934.000000	97.942395 
3933.000000	97.938874 
3932.000000	97.935580 
3931.000000	97.933971 
3930.000000	97.935819 
3929.000000	97.940473 
3928.000000	97.944077 
3927.000000	97.942547 
3926.000000	97.935806 
3925.000000	97.928667 
3924.000000	97.926397 
3923.000000	97.929655 
3922.000000	97.934482 
3921.000000	97.936518 
3920.000000	97.934297 
3919.000000	97.929043 
3918.000000	97.922555 
3917.000000	97.916476 
3916.000000	97.913103 
3915.000000	97.914799 
3914.000000	97.921799 
3913.000000	97.931442 
3912.000000	97.940247 
3911.000000	97.946489 
3910.000000	97.951067 
3909.000000	97.955883 
3908.000000	97.961380 
3907.000000	97.965543 
3906.000000	97.965231 
3905.000000	97.959097 
3904.000000	97.949427 
3903.000000	97.940380 
3902.000000	97.934067 
3901.000000	97.929272 
3900.000000	97.924047 
3899.000000	97.918885 
3898.000000	97.916348 
3897.000000	97.918332 
3896.000000	97.924738 
3895.000000	97.933834 
3894.000000	97.943249 
3893.000000	97.951153 
3892.000000	97.957215 
3891.000000	97.961982 
3890.000000	97.965247 
3889.000000	97.965031 
3888.000000	97.959606 
3887.000000	97.951563 
3886.000000	97.947281 
3885.000000	97.950086 
3884.000000	97.956864 
3883.000000	97.962825 
3882.000000	97.967115 
3881.000000	97.972283 
3880.000000	97.979553 
3879.000000	97.987037 
3878.000000	97.992566 
3877.000000	97.996301 
3876.000000	98.000926 
3875.000000	98.008873 
3874.000000	98.018338 
3873.000000	98.023602 
3872.000000	98.019889 
3871.000000	98.007845 
3870.000000	97.992957 
3869.000000	97.980650 
3868.000000	97.973093 
3867.000000	97.970246 
3866.000000	97.972537 
3865.000000	97.979915 
3864.000000	97.988747 
3863.000000	97.994317 
3862.000000	97.996746 
3861.000000	98.000166 
3860.000000	98.006131 
3859.000000	98.010666 
3858.000000	98.008259 
3857.000000	97.997129 
3856.000000	97.981512 
3855.000000	97.969350 
3854.000000	97.962810 
3853.000000	97.953283 
3852.000000	97.935009 
3851.000000	97.914443 
3850.000000	97.903450 
3849.000000	97.910168 
3848.000000	97.932638 
3847.000000	97.960938 
3846.000000	97.985906 
3845.000000	98.004482 
3844.000000	98.017569 
3843.000000	98.024984 
3842.000000	98.023927 
3841.000000	98.012025 
3840.000000	97.992278 
3839.000000	97.974457 
3838.000000	97.968423 
3837.000000	97.975935 
3836.000000	97.990959 
3835.000000	98.005907 
3834.000000	98.015659 
3833.000000	98.018267 
3832.000000	98.014398 
3831.000000	98.006817 
3830.000000	97.999577 
3829.000000	97.997316 
3828.000000	98.003754 
3827.000000	98.018066 
3826.000000	98.032828 
3825.000000	98.038243 
3824.000000	98.029967 
3823.000000	98.014249 
3822.000000	98.003786 
3821.000000	98.003824 
3820.000000	98.005963 
3819.000000	97.999674 
3818.000000	97.985642 
3817.000000	97.976399 
3816.000000	97.982177 
3815.000000	97.998321 
3814.000000	98.011733 
3813.000000	98.015820 
3812.000000	98.015057 
3811.000000	98.016666 
3810.000000	98.020806 
3809.000000	98.021339 
3808.000000	98.014286 
3807.000000	98.003471 
3806.000000	97.996517 
3805.000000	97.995927 
3804.000000	97.998024 
3803.000000	97.999338 
3802.000000	97.999538 
3801.000000	97.999911 
3800.000000	98.002137 
3799.000000	98.007056 
3798.000000	98.014764 
3797.000000	98.024289 
3796.000000	98.032069 
3795.000000	98.035294 
3794.000000	98.035702 
3793.000000	98.037234 
3792.000000	98.041032 
3791.000000	98.043501 
3790.000000	98.040019 
3789.000000	98.030601 
3788.000000	98.020431 
3787.000000	98.015191 
3786.000000	98.016960 
3785.000000	98.023700 
3784.000000	98.031296 
3783.000000	98.035813 
3782.000000	98.035577 
3781.000000	98.032809 
3780.000000	98.032294 
3779.000000	98.035806 
3778.000000	98.038793 
3777.000000	98.034984 
3776.000000	98.023598 
3775.000000	98.010321 
3774.000000	98.001450 
3773.000000	97.998243 
3772.000000	97.997714 
3771.000000	97.997367 
3770.000000	97.997154 
3769.000000	97.997388 
3768.000000	97.997350 
3767.000000	97.996735 
3766.000000	97.996393 
3765.000000	97.996477 
3764.000000	97.995784 
3763.000000	97.994375 
3762.000000	97.995827 
3761.000000	98.005001 
3760.000000	98.021630 
3759.000000	98.037275 
3758.000000	98.042447 
3757.000000	98.035988 
3756.000000	98.024475 
3755.000000	98.014389 
3754.000000	98.008153 
3753.000000	98.005853 
3752.000000	98.007290 
3751.000000	98.010831 
3750.000000	98.012320 
3749.000000	98.008424 
3748.000000	97.998645 
3747.000000	97.984787 
3746.000000	97.973549 
3745.000000	97.973555 
3744.000000	97.983383 
3743.000000	97.992326 
3742.000000	97.993257 
3741.000000	97.987617 
3740.000000	97.981158 
3739.000000	97.974562 
3738.000000	97.962946 
3737.000000	97.945903 
3736.000000	97.932543 
3735.000000	97.934136 
3734.000000	97.951854 
3733.000000	97.974806 
3732.000000	97.988855 
3731.000000	97.985706 
3730.000000	97.967083 
3729.000000	97.943352 
3728.000000	97.927444 
3727.000000	97.926770 
3726.000000	97.938307 
3725.000000	97.953413 
3724.000000	97.967187 
3723.000000	97.981148 
3722.000000	97.997951 
3721.000000	98.016364 
3720.000000	98.032299 
3719.000000	98.042252 
3718.000000	98.045286 
3717.000000	98.042729 
3716.000000	98.036521 
3715.000000	98.027470 
3714.000000	98.015477 
3713.000000	98.001617 
3712.000000	97.989009 
3711.000000	97.981424 
3710.000000	97.980186 
3709.000000	97.984484 
3708.000000	97.993193 
3707.000000	98.005572 
3706.000000	98.020582 
3705.000000	98.035051 
3704.000000	98.044166 
3703.000000	98.044619 
3702.000000	98.038969 
3701.000000	98.034014 
3700.000000	98.034101 
3699.000000	98.037409 
3698.000000	98.040038 
3697.000000	98.041592 
3696.000000	98.045471 
3695.000000	98.053812 
3694.000000	98.064932 
3693.000000	98.076582 
3692.000000	98.088544 
3691.000000	98.100854 
3690.000000	98.109392 
3689.000000	98.108134 
3688.000000	98.097209 
3687.000000	98.085191 
3686.000000	98.080301 
3685.000000	98.083839 
3684.000000	98.092345 
3683.000000	98.101344 
3682.000000	98.108533 
3681.000000	98.113735 
3680.000000	98.116597 
3679.000000	98.114869 
3678.000000	98.106198 
3677.000000	98.092012 
3676.000000	98.078609 
3675.000000	98.071249 
3674.000000	98.069148 
3673.000000	98.068263 
3672.000000	98.067462 
3671.000000	98.070986 
3670.000000	98.081636 
3669.000000	98.094050 
3668.000000	98.100379 
3667.000000	98.100322 
3666.000000	98.102089 
3665.000000	98.114528 
3664.000000	98.137958 
3663.000000	98.162466 
3662.000000	98.176576 
3661.000000	98.178161 
3660.000000	98.174221 
3659.000000	98.170866 
3658.000000	98.167035 
3657.000000	98.159107 
3656.000000	98.149269 
3655.000000	98.144716 
3654.000000	98.148948 
3653.000000	98.158428 
3652.000000	98.166559 
3651.000000	98.167731 
3650.000000	98.159736 
3649.000000	98.144640 
3648.000000	98.127421 
3647.000000	98.113779 
3646.000000	98.107332 
3645.000000	98.108557 
3644.000000	98.117952 
3643.000000	98.136140 
3642.000000	98.158687 
3641.000000	98.174930 
3640.000000	98.175872 
3639.000000	98.163322 
3638.000000	98.148514 
3637.000000	98.141610 
3636.000000	98.144088 
3635.000000	98.150831 
3634.000000	98.156971 
3633.000000	98.160866 
3632.000000	98.162628 
3631.000000	98.162957 
3630.000000	98.163194 
3629.000000	98.163469 
3628.000000	98.161937 
3627.000000	98.158395 
3626.000000	98.155839 
3625.000000	98.157386 
3624.000000	98.163284 
3623.000000	98.170712 
3622.000000	98.176523 
3621.000000	98.180492 
3620.000000	98.184987 
3619.000000	98.191167 
3618.000000	98.196983 
3617.000000	98.199463 
3616.000000	98.196845 
3615.000000	98.189027 
3614.000000	98.178638 
3613.000000	98.171162 
3612.000000	98.172848 
3611.000000	98.187876 
3610.000000	98.215042 
3609.000000	98.245942 
3608.000000	98.268033 
3607.000000	98.274405 
3606.000000	98.270938 
3605.000000	98.271219 
3604.000000	98.284448 
3603.000000	98.307447 
3602.000000	98.328059 
3601.000000	98.336182 
3600.000000	98.332784 
3599.000000	98.328032 
3598.000000	98.332128 
3597.000000	98.348464 
3596.000000	98.372281 
3595.000000	98.393830 
3594.000000	98.404151 
3593.000000	98.399809 
3592.000000	98.382542 
3591.000000	98.356752 
3590.000000	98.328792 
3589.000000	98.308410 
3588.000000	98.305099 
3587.000000	98.320479 
3586.000000	98.347997 
3585.000000	98.380116 
3584.000000	98.410926 
3583.000000	98.434139 
3582.000000	98.445255 
3581.000000	98.445305 
3580.000000	98.441160 
3579.000000	98.440591 
3578.000000	98.446675 
3577.000000	98.456887 
3576.000000	98.466265 
3575.000000	98.471015 
3574.000000	98.470056 
3573.000000	98.465626 
3572.000000	98.462282 
3571.000000	98.464648 
3570.000000	98.474340 
3569.000000	98.488576 
3568.000000	98.500973 
3567.000000	98.505452 
3566.000000	98.501405 
3565.000000	98.495174 
3564.000000	98.494424 
3563.000000	98.502149 
3562.000000	98.517035 
3561.000000	98.537081 
3560.000000	98.560672 
3559.000000	98.585201 
3558.000000	98.605873 
3557.000000	98.617487 
3556.000000	98.618617 
3555.000000	98.613947 
3554.000000	98.611485 
3553.000000	98.616666 
3552.000000	98.629371 
3551.000000	98.646472 
3550.000000	98.664965 
3549.000000	98.681159 
3548.000000	98.689798 
3547.000000	98.688215 
3546.000000	98.681727 
3545.000000	98.680870 
3544.000000	98.690580 
3543.000000	98.704569 
3542.000000	98.712561 
3541.000000	98.711795 
3540.000000	98.709618 
3539.000000	98.715682 
3538.000000	98.733253 
3537.000000	98.757507 
3536.000000	98.779806 
3535.000000	98.793460 
3534.000000	98.797414 
3533.000000	98.796253 
3532.000000	98.796616 
3531.000000	98.802639 
3530.000000	98.813460 
3529.000000	98.823907 
3528.000000	98.827515 
3527.000000	98.821112 
3526.000000	98.809111 
3525.000000	98.802810 
3524.000000	98.812395 
3523.000000	98.837523 
3522.000000	98.867001 
3521.000000	98.888014 
3520.000000	98.894742 
3519.000000	98.890175 
3518.000000	98.883912 
3517.000000	98.887749 
3516.000000	98.907945 
3515.000000	98.938466 
3514.000000	98.963767 
3513.000000	98.971815 
3512.000000	98.964184 
3511.000000	98.952099 
3510.000000	98.943657 
3509.000000	98.937592 
3508.000000	98.929065 
3507.000000	98.917741 
3506.000000	98.908595 
3505.000000	98.906791 
3504.000000	98.912833 
3503.000000	98.921929 
3502.000000	98.928222 
3501.000000	98.929740 
3500.000000	98.928932 
3499.000000	98.929244 
3498.000000	98.932833 
3497.000000	98.940966 
3496.000000	98.953588 
3495.000000	98.967078 
3494.000000	98.975008 
3493.000000	98.974353 
3492.000000	98.970375 
3491.000000	98.972481 
3490.000000	98.984474 
3489.000000	99.000498 
3488.000000	99.011386 
3487.000000	99.013407 
3486.000000	99.010191 
3485.000000	99.007921 
3484.000000	99.009942 
3483.000000	99.014219 
3482.000000	99.014343 
3481.000000	99.004978 
3480.000000	98.988830 
3479.000000	98.977329 
3478.000000	98.981226 
3477.000000	98.999278 
3476.000000	99.018003 
3475.000000	99.024301 
3474.000000	99.017674 
3473.000000	99.008218 
3472.000000	99.004353 
3471.000000	99.005859 
3470.000000	99.008601 
3469.000000	99.011829 
3468.000000	99.018380 
3467.000000	99.030034 
3466.000000	99.045428 
3465.000000	99.061440 
3464.000000	99.074216 
3463.000000	99.080079 
3462.000000	99.078990 
3461.000000	99.077242 
3460.000000	99.083370 
3459.000000	99.099589 
3458.000000	99.118649 
3457.000000	99.130282 
3456.000000	99.129837 
3455.000000	99.120622 
3454.000000	99.109826 
3453.000000	99.103500 
3452.000000	99.104112 
3451.000000	99.110260 
3450.000000	99.117916 
3449.000000	99.122842 
3448.000000	99.123059 
3447.000000	99.119920 
3446.000000	99.116788 
3445.000000	99.115704 
3444.000000	99.114918 
3443.000000	99.110696 
3442.000000	99.102469 
3441.000000	99.094984 
3440.000000	99.093465 
3439.000000	99.097557 
3438.000000	99.102147 
3437.000000	99.103734 
3436.000000	99.103455 
3435.000000	99.103306 
3434.000000	99.102170 
3433.000000	99.097680 
3432.000000	99.090929 
3431.000000	99.087215 
3430.000000	99.091501 
3429.000000	99.103470 
3428.000000	99.117207 
3427.000000	99.126209 
3426.000000	99.128846 
3425.000000	99.127938 
3424.000000	99.124801 
3423.000000	99.116012 
3422.000000	99.098489 
3421.000000	99.076365 
3420.000000	99.059246 
3419.000000	99.053600 
3418.000000	99.058549 
3417.000000	99.069516 
3416.000000	99.081849 
3415.000000	99.090187 
3414.000000	99.088979 
3413.000000	99.077384 
3412.000000	99.062025 
3411.000000	99.051826 
3410.000000	99.050136 
3409.000000	99.052854 
3408.000000	99.053136 
3407.000000	99.046767 
3406.000000	99.034177 
3405.000000	99.019103 
3404.000000	99.005464 
3403.000000	98.994846 
3402.000000	98.986771 
3401.000000	98.980557 
3400.000000	98.975396 
3399.000000	98.969013 
3398.000000	98.958858 
3397.000000	98.945691 
3396.000000	98.934139 
3395.000000	98.928360 
3394.000000	98.928407 
3393.000000	98.931871 
3392.000000	98.937640 
3391.000000	98.946437 
3390.000000	98.958152 
3389.000000	98.970027 
3388.000000	98.978133 
3387.000000	98.981004 
3386.000000	98.981859 
3385.000000	98.985670 
3384.000000	98.992248 
3383.000000	98.993383 
3382.000000	98.979931 
3381.000000	98.952324 
3380.000000	98.922302 
3379.000000	98.903693 
3378.000000	98.902055 
3377.000000	98.911988 
3376.000000	98.921696 
3375.000000	98.920951 
3374.000000	98.908764 
3373.000000	98.895085 
3372.000000	98.892464 
3371.000000	98.904174 
3370.000000	98.921678 
3369.000000	98.933828 
3368.000000	98.936514 
3367.000000	98.933493 
3366.000000	98.931268 
3365.000000	98.934031 
3364.000000	98.940383 
3363.000000	98.943602 
3362.000000	98.938101 
3361.000000	98.926948 
3360.000000	98.919584 
3359.000000	98.920386 
3358.000000	98.922892 
3357.000000	98.917759 
3356.000000	98.903241 
3355.000000	98.884886 
3354.000000	98.868040 
3353.000000	98.854832 
3352.000000	98.846669 
3351.000000	98.845084 
3350.000000	98.849821 
3349.000000	98.858466 
3348.000000	98.867681 
3347.000000	98.873246 
3346.000000	98.870728 
3345.000000	98.859591 
3344.000000	98.846489 
3343.000000	98.841269 
3342.000000	98.847912 
3341.000000	98.859874 
3340.000000	98.864782 
3339.000000	98.854357 
3338.000000	98.831133 
3337.000000	98.806062 
3336.000000	98.788703 
3335.000000	98.779511 
3334.000000	98.772321 
3333.000000	98.762399 
3332.000000	98.748927 
3331.000000	98.731502 
3330.000000	98.710631 
3329.000000	98.693206 
3328.000000	98.690527 
3327.000000	98.705337 
3326.000000	98.724857 
3325.000000	98.732694 
3324.000000	98.725466 
3323.000000	98.712242 
3322.000000	98.699470 
3321.000000	98.683637 
3320.000000	98.659698 
3319.000000	98.630417 
3318.000000	98.603626 
3317.000000	98.583480 
3316.000000	98.568167 
3315.000000	98.555089 
3314.000000	98.545127 
3313.000000	98.540641 
3312.000000	98.540203 
3311.000000	98.536896 
3310.000000	98.523320 
3309.000000	98.498555 
3308.000000	98.468722 
3307.000000	98.440144 
3306.000000	98.413614 
3305.000000	98.386260 
3304.000000	98.356829 
3303.000000	98.327107 
3302.000000	98.299667 
3301.000000	98.276188 
3300.000000	98.256523 
3299.000000	98.237171 
3298.000000	98.212181 
3297.000000	98.178652 
3296.000000	98.141069 
3295.000000	98.107476 
3294.000000	98.081021 
3293.000000	98.057194 
3292.000000	98.029805 
3291.000000	97.998329 
3290.000000	97.968925 
3289.000000	97.948967 
3288.000000	97.940324 
3287.000000	97.936801 
3286.000000	97.928012 
3285.000000	97.906595 
3284.000000	97.872471 
3283.000000	97.831561 
3282.000000	97.792133 
3281.000000	97.761773 
3280.000000	97.744385 
3279.000000	97.737867 
3278.000000	97.735836 
3277.000000	97.732731 
3276.000000	97.726223 
3275.000000	97.715003 
3274.000000	97.697853 
3273.000000	97.676579 
3272.000000	97.656105 
3271.000000	97.638329 
3270.000000	97.618316 
3269.000000	97.590290 
3268.000000	97.555856 
3267.000000	97.522539 
3266.000000	97.495073 
3265.000000	97.471706 
3264.000000	97.448901 
3263.000000	97.426269 
3262.000000	97.406152 
3261.000000	97.390718 
3260.000000	97.379733 
3259.000000	97.369007 
3258.000000	97.350989 
3257.000000	97.319649 
3256.000000	97.276141 
3255.000000	97.228518 
3254.000000	97.185416 
3253.000000	97.150817 
3252.000000	97.124023 
3251.000000	97.101873 
3250.000000	97.079675 
3249.000000	97.051802 
3248.000000	97.013952 
3247.000000	96.966260 
3246.000000	96.914530 
3245.000000	96.867587 
3244.000000	96.831631 
3243.000000	96.806089 
3242.000000	96.785030 
3241.000000	96.762046 
3240.000000	96.732901 
3239.000000	96.695138 
3238.000000	96.648952 
3237.000000	96.599441 
3236.000000	96.554275 
3235.000000	96.516250 
3234.000000	96.480102 
3233.000000	96.439123 
3232.000000	96.393114 
3231.000000	96.347531 
3230.000000	96.307007 
3229.000000	96.273032 
3228.000000	96.246067 
3227.000000	96.225192 
3226.000000	96.205576 
3225.000000	96.180673 
3224.000000	96.148806 
3223.000000	96.114965 
3222.000000	96.084081 
3221.000000	96.053974 
3220.000000	96.016992 
3219.000000	95.968570 
3218.000000	95.912854 
3217.000000	95.859172 
3216.000000	95.813255 
3215.000000	95.772739 
3214.000000	95.731849 
3213.000000	95.689450 
3212.000000	95.650244 
3211.000000	95.617999 
3210.000000	95.590358 
3209.000000	95.561557 
3208.000000	95.527713 
3207.000000	95.487311 
3206.000000	95.439052 
3205.000000	95.383160 
3204.000000	95.324488 
3203.000000	95.270660 
3202.000000	95.225307 
3201.000000	95.184138 
3200.000000	95.138638 
3199.000000	95.083715 
3198.000000	95.022151 
3197.000000	94.961925 
3196.000000	94.908419 
3195.000000	94.858724 
3194.000000	94.804159 
3193.000000	94.738469 
3192.000000	94.662324 
3191.000000	94.579821 
3190.000000	94.493380 
3189.000000	94.404074 
3188.000000	94.314708 
3187.000000	94.228914 
3186.000000	94.146980 
3185.000000	94.065067 
3184.000000	93.979492 
3183.000000	93.890404 
3182.000000	93.800226 
3181.000000	93.709260 
3180.000000	93.614053 
3179.000000	93.510627 
3178.000000	93.399081 
3177.000000	93.284124 
3176.000000	93.170757 
3175.000000	93.060564 
3174.000000	92.952904 
3173.000000	92.847839 
3172.000000	92.745804 
3171.000000	92.645940 
3170.000000	92.548023 
3169.000000	92.455390 
3168.000000	92.371894 
3167.000000	92.295023 
3166.000000	92.215631 
3165.000000	92.126381 
3164.000000	92.028213 
3163.000000	91.927412 
3162.000000	91.828870 
3161.000000	91.733118 
3160.000000	91.636568 
3159.000000	91.532976 
3158.000000	91.418281 
3157.000000	91.296629 
3156.000000	91.178291 
3155.000000	91.068300 
3154.000000	90.959689 
3153.000000	90.841558 
3152.000000	90.711706 
3151.000000	90.577288 
3150.000000	90.444701 
3149.000000	90.313616 
3148.000000	90.180740 
3147.000000	90.045006 
3146.000000	89.907788 
3145.000000	89.770878 
3144.000000	89.635443 
3143.000000	89.501032 
3142.000000	89.364880 
3141.000000	89.223898 
3140.000000	89.078005 
3139.000000	88.930264 
3138.000000	88.783501 
3137.000000	88.637931 
3136.000000	88.491924 
3135.000000	88.343330 
3134.000000	88.189515 
3133.000000	88.027400 
3132.000000	87.854622 
3131.000000	87.670992 
3130.000000	87.479414 
3129.000000	87.285715 
3128.000000	87.096141 
3127.000000	86.912915 
3126.000000	86.731780 
3125.000000	86.544571 
3124.000000	86.344371 
3123.000000	86.128503 
3122.000000	85.898293 
3121.000000	85.657529 
3120.000000	85.410220 
3119.000000	85.157541 
3118.000000	84.896307 
3117.000000	84.621702 
3116.000000	84.332454 
3115.000000	84.032897 
3114.000000	83.729199 
3113.000000	83.423408 
3112.000000	83.111420 
3111.000000	82.787146 
3110.000000	82.448657 
3109.000000	82.100020 
3108.000000	81.747777 
3107.000000	81.397399 
3106.000000	81.053591 
3105.000000	80.721032 
3104.000000	80.401203 
3103.000000	80.088802 
3102.000000	79.774633 
3101.000000	79.453431 
3100.000000	79.127255 
3099.000000	78.801001 
3098.000000	78.477341 
3097.000000	78.157555 
3096.000000	77.845036 
3095.000000	77.544952 
3094.000000	77.259959 
3093.000000	76.987511 
3092.000000	76.722273 
3091.000000	76.461386 
3090.000000	76.206862 
3089.000000	75.961793 
3088.000000	75.724586 
3087.000000	75.489520 
3086.000000	75.254814 
3085.000000	75.028167 
3084.000000	74.821224 
3083.000000	74.638813 
3082.000000	74.475411 
3081.000000	74.321294 
3080.000000	74.169773 
3079.000000	74.019282 
3078.000000	73.872308 
3077.000000	73.733828 
3076.000000	73.608785 
3075.000000	73.499597 
3074.000000	73.406558 
3073.000000	73.330133 
3072.000000	73.270793 
3071.000000	73.226161 
3070.000000	73.190358 
3069.000000	73.157696 
3068.000000	73.126980 
3067.000000	73.102063 
3066.000000	73.088231 
3065.000000	73.087244 
3064.000000	73.095143 
3063.000000	73.106012 
3062.000000	73.119096 
3061.000000	73.141059 
3060.000000	73.179293 
3059.000000	73.233395 
3058.000000	73.295112 
3057.000000	73.356771 
3056.000000	73.418473 
3055.000000	73.486751 
3054.000000	73.567002 
3053.000000	73.657160 
3052.000000	73.748134 
3051.000000	73.831100 
3050.000000	73.905042 
3049.000000	73.976522 
3048.000000	74.051934 
3047.000000	74.131565 
3046.000000	74.211316 
3045.000000	74.286795 
3044.000000	74.353551 
3043.000000	74.406383 
3042.000000	74.442403 
3041.000000	74.464217 
3040.000000	74.477489 
3039.000000	74.485977 
3038.000000	74.490707 
3037.000000	74.492039 
3036.000000	74.489273 
3035.000000	74.479343 
3034.000000	74.459499 
3033.000000	74.431220 
3032.000000	74.398851 
3031.000000	74.364930 
3030.000000	74.329823 
3029.000000	74.295480 
3028.000000	74.265991 
3027.000000	74.243798 
3026.000000	74.227645 
3025.000000	74.214473 
3024.000000	74.201429 
3023.000000	74.186770 
3022.000000	74.171544 
3021.000000	74.159818 
3020.000000	74.154044 
3019.000000	74.150476 
3018.000000	74.142615 
3017.000000	74.129309 
3016.000000	74.115755 
3015.000000	74.106030 
3014.000000	74.098975 
3013.000000	74.093054 
3012.000000	74.091271 
3011.000000	74.097895 
3010.000000	74.111605 
3009.000000	74.123856 
3008.000000	74.122733 
3007.000000	74.097076 
3006.000000	74.038348 
3005.000000	73.941257 
3004.000000	73.805678 
3003.000000	73.642014 
3002.000000	73.478212 
3001.000000	73.358862 
3000.000000	73.328136 
2999.000000	73.404191 
2998.000000	73.565021 
2997.000000	73.757110 
2996.000000	73.916072 
2995.000000	73.983028 
2994.000000	73.913674 
2993.000000	73.688594 
2992.000000	73.327635 
2991.000000	72.895461 
2990.000000	72.484644 
2989.000000	72.178491 
2988.000000	72.017361 
2987.000000	71.994112 
2986.000000	72.078013 
2985.000000	72.240922 
2984.000000	72.462825 
2983.000000	72.722989 
2982.000000	72.996890 
2981.000000	73.263994 
2980.000000	73.514672 
2979.000000	73.747709 
2978.000000	73.964038 
2977.000000	74.164313 
2976.000000	74.350307 
2975.000000	74.526964 
2974.000000	74.703884 
2973.000000	74.894835 
2972.000000	75.112968 
2971.000000	75.363387 
2970.000000	75.638866 
2969.000000	75.922297 
2968.000000	76.193916 
2967.000000	76.439311 
2966.000000	76.654485 
2965.000000	76.845006 
2964.000000	77.019676 
2963.000000	77.183605 
2962.000000	77.335635 
2961.000000	77.469839 
2960.000000	77.578275 
2959.000000	77.654287 
2958.000000	77.695349 
2957.000000	77.701890 
2956.000000	77.672286 
2955.000000	77.601377 
2954.000000	77.486960 
2953.000000	77.336460 
2952.000000	77.163969 
2951.000000	76.981429 
2950.000000	76.795654 
2949.000000	76.612331 
2948.000000	76.437352 
2947.000000	76.272117 
2946.000000	76.110997 
2945.000000	75.946856 
2944.000000	75.778977 
2943.000000	75.614895 
2942.000000	75.464967 
2941.000000	75.335244 
2940.000000	75.224895 
2939.000000	75.130565 
2938.000000	75.053151 
2937.000000	74.998321 
2936.000000	74.969169 
2935.000000	74.960867 
2934.000000	74.965538 
2933.000000	74.980939 
2932.000000	75.011463 
2931.000000	75.061565 
2930.000000	75.131088 
2929.000000	75.215908 
2928.000000	75.309780 
2927.000000	75.406334 
2926.000000	75.503029 
2925.000000	75.603476 
2924.000000	75.712807 
2923.000000	75.830664 
2922.000000	75.951421 
2921.000000	76.070737 
2920.000000	76.188617 
2919.000000	76.306588 
2918.000000	76.425865 
2917.000000	76.548612 
2916.000000	76.676825 
2915.000000	76.808261 
2914.000000	76.936395 
2913.000000	77.056145 
2912.000000	77.167984 
2911.000000	77.275630 
2910.000000	77.381853 
2909.000000	77.487472 
2908.000000	77.592190 
2907.000000	77.694911 
2906.000000	77.794455 
2905.000000	77.890501 
2904.000000	77.982230 
2903.000000	78.065602 
2902.000000	78.134246 
2901.000000	78.184923 
2900.000000	78.221198 
2899.000000	78.250955 
2898.000000	78.280406 
2897.000000	78.310100 
2896.000000	78.335746 
2895.000000	78.352956 
2894.000000	78.362376 
2893.000000	78.369904 
2892.000000	78.380678 
2891.000000	78.393404 
2890.000000	78.402135 
2889.000000	78.403000 
2888.000000	78.397462 
2887.000000	78.389908 
2886.000000	78.384540 
2885.000000	78.384576 
2884.000000	78.392313 
2883.000000	78.409194 
2882.000000	78.436182 
2881.000000	78.472685 
2880.000000	78.513936 
2879.000000	78.552103 
2878.000000	78.583323 
2877.000000	78.612247 
2876.000000	78.646009 
2875.000000	78.684830 
2874.000000	78.722787 
2873.000000	78.757102 
2872.000000	78.791344 
2871.000000	78.828316 
2870.000000	78.864347 
2869.000000	78.892840 
2868.000000	78.910394 
2867.000000	78.917890 
2866.000000	78.918985 
2865.000000	78.919547 
2864.000000	78.925259 
2863.000000	78.936823 
2862.000000	78.949036 
2861.000000	78.956245 
2860.000000	78.957083 
2859.000000	78.953253 
2858.000000	78.946927 
2857.000000	78.940936 
2856.000000	78.938273 
2855.000000	78.939020 
2854.000000	78.940120 
2853.000000	78.940412 
2852.000000	78.943503 
2851.000000	78.953021 
2850.000000	78.966796 
2849.000000	78.978540 
2848.000000	78.984655 
2847.000000	78.987239 
2846.000000	78.990795 
2845.000000	78.997419 
2844.000000	79.004823 
2843.000000	79.008109 
2842.000000	79.004031 
2841.000000	78.993890 
2840.000000	78.981144 
2839.000000	78.966065 
2838.000000	78.944788 
2837.000000	78.914232 
2836.000000	78.875224 
2835.000000	78.828931 
2834.000000	78.772690 
2833.000000	78.702415 
2832.000000	78.618385 
2831.000000	78.526027 
2830.000000	78.430916 
2829.000000	78.334498 
2828.000000	78.234334 
2827.000000	78.126942 
2826.000000	78.010573 
2825.000000	77.887016 
2824.000000	77.761296 
2823.000000	77.638787 
2822.000000	77.521910 
2821.000000	77.409578 
2820.000000	77.299624 
2819.000000	77.191585 
2818.000000	77.087593 
2817.000000	76.991022 
2816.000000	76.904231 
2815.000000	76.827529 
2814.000000	76.760338 
2813.000000	76.703006 
2812.000000	76.656974 
2811.000000	76.623412 
2810.000000	76.602300 
2809.000000	76.592664 
2808.000000	76.593213 
2807.000000	76.603161 
2806.000000	76.623336 
2805.000000	76.656240 
2804.000000	76.703864 
2803.000000	76.764808 
2802.000000	76.833394 
2801.000000	76.901319 
2800.000000	76.960312 
2799.000000	77.004869 
2798.000000	77.034104 
2797.000000	77.050743 
2796.000000	77.057490 
2795.000000	77.054799 
2794.000000	77.042822 
2793.000000	77.023952 
2792.000000	77.001181 
2791.000000	76.974422 
2790.000000	76.940908 
2789.000000	76.899717 
2788.000000	76.854014 
2787.000000	76.808152 
2786.000000	76.764397 
2785.000000	76.723761 
2784.000000	76.688743 
2783.000000	76.663286 
2782.000000	76.649529 
2781.000000	76.645385 
2780.000000	76.646323 
2779.000000	76.650067 
2778.000000	76.659222 
2777.000000	76.678379 
2776.000000	76.708730 
2775.000000	76.746601 
2774.000000	76.787248 
2773.000000	76.828317 
2772.000000	76.869073 
2771.000000	76.908541 
2770.000000	76.946291 
2769.000000	76.983715 
2768.000000	77.022551 
2767.000000	77.062881 
2766.000000	77.103823 
2765.000000	77.144676 
2764.000000	77.183401 
2763.000000	77.215446 
2762.000000	77.236852 
2761.000000	77.247861 
2760.000000	77.251018 
2759.000000	77.246438 
2758.000000	77.231908 
2757.000000	77.207318 
2756.000000	77.175639 
2755.000000	77.139122 
2754.000000	77.097888 
2753.000000	77.053409 
2752.000000	77.010116 
2751.000000	76.971275 
2750.000000	76.935326 
2749.000000	76.898367 
2748.000000	76.858623 
2747.000000	76.816247 
2746.000000	76.770027 
2745.000000	76.717306 
2744.000000	76.657486 
2743.000000	76.593430 
2742.000000	76.528259 
2741.000000	76.461742 
2740.000000	76.390804 
2739.000000	76.313026 
2738.000000	76.228552 
2737.000000	76.138814 
2736.000000	76.045115 
2735.000000	75.949880 
2734.000000	75.858546 
2733.000000	75.778332 
2732.000000	75.714465 
2731.000000	75.668553 
2730.000000	75.640656 
2729.000000	75.631383 
2728.000000	75.641418 
2727.000000	75.670738 
2726.000000	75.719745 
2725.000000	75.790197 
2724.000000	75.883440 
2723.000000	75.997619 
2722.000000	76.127231 
2721.000000	76.265598 
2720.000000	76.408452 
2719.000000	76.556342 
2718.000000	76.713335 
2717.000000	76.881788 
2716.000000	77.058348 
2715.000000	77.237044 
2714.000000	77.416581 
2713.000000	77.601795 
2712.000000	77.796494 
2711.000000	77.997382 
2710.000000	78.197646 
2709.000000	78.395275 
2708.000000	78.595343 
2707.000000	78.804562 
2706.000000	79.025234 
2705.000000	79.253633 
2704.000000	79.482353 
2703.000000	79.704620 
2702.000000	79.918135 
2701.000000	80.124953 
2700.000000	80.327204 
2699.000000	80.524392 
2698.000000	80.716103 
2697.000000	80.905175 
2696.000000	81.095166 
2695.000000	81.285503 
2694.000000	81.472275 
2693.000000	81.654002 
2692.000000	81.833999 
2691.000000	82.016650 
2690.000000	82.203565 
2689.000000	82.393604 
2688.000000	82.584017 
2687.000000	82.770548 
2686.000000	82.949092 
2685.000000	83.119437 
2684.000000	83.286387 
2683.000000	83.455543 
2682.000000	83.628149 
2681.000000	83.800705 
2680.000000	83.968665 
2679.000000	84.129383 
2678.000000	84.281713 
2677.000000	84.423864 
2676.000000	84.552398 
2675.000000	84.663516 
2674.000000	84.754827 
2673.000000	84.824924 
2672.000000	84.871511 
2671.000000	84.892070 
2670.000000	84.887785 
2669.000000	84.864962 
2668.000000	84.829906 
2667.000000	84.782916 
2666.000000	84.719620 
2665.000000	84.637917 
2664.000000	84.541152 
2663.000000	84.434688 
2662.000000	84.322688 
2661.000000	84.209839 
2660.000000	84.103759 
2659.000000	84.012665 
2658.000000	83.940213 
2657.000000	83.883704 
2656.000000	83.837886 
2655.000000	83.800221 
2654.000000	83.771929 
2653.000000	83.753957 
2652.000000	83.743517 
2651.000000	83.736203 
2650.000000	83.730316 
2649.000000	83.725876 
2648.000000	83.719388 
2647.000000	83.703784 
2646.000000	83.675569 
2645.000000	83.638337 
2644.000000	83.595982 
2643.000000	83.545277 
2642.000000	83.478722 
2641.000000	83.392058 
2640.000000	83.284308 
2639.000000	83.152157 
2638.000000	82.990050 
2637.000000	82.796809 
2636.000000	82.578687 
2635.000000	82.345316 
2634.000000	82.104734 
2633.000000	81.860936 
2632.000000	81.612708 
2631.000000	81.355899 
2630.000000	81.090638 
2629.000000	80.825455 
2628.000000	80.570491 
2627.000000	80.327811 
2626.000000	80.092913 
2625.000000	79.864463 
2624.000000	79.646884 
2623.000000	79.443035 
2622.000000	79.249599 
2621.000000	79.061081 
2620.000000	78.874488 
2619.000000	78.689572 
2618.000000	78.508670 
2617.000000	78.336957 
2616.000000	78.178447 
2615.000000	78.030094 
2614.000000	77.883107 
2613.000000	77.731252 
2612.000000	77.575340 
2611.000000	77.419388 
2610.000000	77.265706 
2609.000000	77.114240 
2608.000000	76.963853 
2607.000000	76.814573 
2606.000000	76.671967 
2605.000000	76.548428 
2604.000000	76.454820 
2603.000000	76.389424 
2602.000000	76.338832 
2601.000000	76.290908 
2600.000000	76.244037 
2599.000000	76.203995 
2598.000000	76.176757 
2597.000000	76.165885 
2596.000000	76.172089 
2595.000000	76.192477 
2594.000000	76.223938 
2593.000000	76.270728 
2592.000000	76.346087 
2591.000000	76.462293 
2590.000000	76.619648 
2589.000000	76.807839 
2588.000000	77.017442 
2587.000000	77.247272 
2586.000000	77.500145 
2585.000000	77.774514 
2584.000000	78.062675 
2583.000000	78.356038 
2582.000000	78.649177 
2581.000000	78.937963 
2580.000000	79.216683 
2579.000000	79.480343 
2578.000000	79.729648 
2577.000000	79.970704 
2576.000000	80.208295 
2575.000000	80.440695 
2574.000000	80.661587 
2573.000000	80.865026 
2572.000000	81.047711 
2571.000000	81.209522 
2570.000000	81.354941 
2569.000000	81.492808 
2568.000000	81.631805 
2567.000000	81.775911 
2566.000000	81.924708 
2565.000000	82.075774 
2564.000000	82.224594 
2563.000000	82.364603 
2562.000000	82.491458 
2561.000000	82.607645 
2560.000000	82.720823 
2559.000000	82.837938 
2558.000000	82.962136 
2557.000000	83.093415 
2556.000000	83.229500 
2555.000000	83.367329 
2554.000000	83.506492 
2553.000000	83.650096 
2552.000000	83.799338 
2551.000000	83.948022 
2550.000000	84.085192 
2549.000000	84.202824 
2548.000000	84.299457 
2547.000000	84.378459 
2546.000000	84.445634 
2545.000000	84.506509 
2544.000000	84.562234 
2543.000000	84.609396 
2542.000000	84.646695 
2541.000000	84.678958 
2540.000000	84.710292 
2539.000000	84.736364 
2538.000000	84.749928 
2537.000000	84.752603 
2536.000000	84.754214 
2535.000000	84.760276 
2534.000000	84.766793 
2533.000000	84.768691 
2532.000000	84.767184 
2531.000000	84.766355 
2530.000000	84.767218 
2529.000000	84.767803 
2528.000000	84.765673 
2527.000000	84.758521 
2526.000000	84.745218 
2525.000000	84.727085 
2524.000000	84.704745 
2523.000000	84.673297 
2522.000000	84.625295 
2521.000000	84.560557 
2520.000000	84.489433 
2519.000000	84.423846 
2518.000000	84.367093 
2517.000000	84.313419 
2516.000000	84.255328 
2515.000000	84.190588 
2514.000000	84.124464 
2513.000000	84.065895 
2512.000000	84.019477 
2511.000000	83.980659 
2510.000000	83.940443 
2509.000000	83.895137 
2508.000000	83.851167 
2507.000000	83.822275 
2506.000000	83.823206 
2505.000000	83.862231 
2504.000000	83.935051 
2503.000000	84.027059 
2502.000000	84.125485 
2501.000000	84.229582 
2500.000000	84.347998 
2499.000000	84.488946 
2498.000000	84.655132 
2497.000000	84.843350 
2496.000000	85.043067 
2495.000000	85.238010 
2494.000000	85.416241 
2493.000000	85.579296 
2492.000000	85.737390 
2491.000000	85.896915 
2490.000000	86.057264 
2489.000000	86.217546 
2488.000000	86.378590 
2487.000000	86.537332 
2486.000000	86.685640 
2485.000000	86.817164 
2484.000000	86.931805 
2483.000000	87.033181 
2482.000000	87.125800 
2481.000000	87.213890 
2480.000000	87.297252 
2479.000000	87.368243 
2478.000000	87.418615 
2477.000000	87.449270 
2476.000000	87.466916 
2475.000000	87.472034 
2474.000000	87.459803 
2473.000000	87.435374 
2472.000000	87.418420 
2471.000000	87.426229 
2470.000000	87.458554 
2469.000000	87.504954 
2468.000000	87.561808 
2467.000000	87.634962 
2466.000000	87.728246 
2465.000000	87.836382 
2464.000000	87.949907 
2463.000000	88.062912 
2462.000000	88.174572 
2461.000000	88.285255 
2460.000000	88.393101 
2459.000000	88.495610 
2458.000000	88.594568 
2457.000000	88.696338 
2456.000000	88.803792 
2455.000000	88.909757 
2454.000000	89.003631 
2453.000000	89.084702 
2452.000000	89.164298 
2451.000000	89.254206 
2450.000000	89.357392 
2449.000000	89.469818 
2448.000000	89.584439 
2447.000000	89.690968 
2446.000000	89.778085 
2445.000000	89.841402 
2444.000000	89.887354 
2443.000000	89.926842 
2442.000000	89.967308 
2441.000000	90.011462 
2440.000000	90.058746 
2439.000000	90.105212 
2438.000000	90.145900 
2437.000000	90.180647 
2436.000000	90.215096 
2435.000000	90.253831 
2434.000000	90.295107 
2433.000000	90.334075 
2432.000000	90.368575 
2431.000000	90.400289 
2430.000000	90.432738 
2429.000000	90.469037 
2428.000000	90.508648 
2427.000000	90.545662 
2426.000000	90.573610 
2425.000000	90.592523 
2424.000000	90.607912 
2423.000000	90.623006 
2422.000000	90.637020 
2421.000000	90.651706 
2420.000000	90.673586 
2419.000000	90.706782 
2418.000000	90.747824 
2417.000000	90.790530 
2416.000000	90.833202 
2415.000000	90.879184 
2414.000000	90.932973 
2413.000000	90.996699 
2412.000000	91.067377 
2411.000000	91.137478 
2410.000000	91.202456 
2409.000000	91.267920 
2408.000000	91.343596 
2407.000000	91.428245 
2406.000000	91.506423 
2405.000000	91.564022 
2404.000000	91.602944 
2403.000000	91.636747 
2402.000000	91.675248 
2401.000000	91.717286 
2400.000000	91.755942 
2399.000000	91.786463 
2398.000000	91.809216 
2397.000000	91.827126 
2396.000000	91.840913 
2395.000000	91.847424 
2394.000000	91.843939 
2393.000000	91.833416 
2392.000000	91.823393 
2391.000000	91.820646 
2390.000000	91.829642 
2389.000000	91.854301 
2388.000000	91.896255 
2387.000000	91.951306 
2386.000000	92.012254 
2385.000000	92.076207 
2384.000000	92.145440 
2383.000000	92.220268 
2382.000000	92.295420 
2381.000000	92.365485 
2380.000000	92.430136 
2379.000000	92.491323 
2378.000000	92.548344 
2377.000000	92.597194 
2376.000000	92.633151 
2375.000000	92.654152 
2374.000000	92.667120 
2373.000000	92.689739 
2372.000000	92.735824 
2371.000000	92.798466 
2370.000000	92.858279 
2369.000000	92.906988 
2368.000000	92.947483 
2367.000000	92.973371 
2366.000000	92.973995 
2365.000000	92.963606 
2364.000000	92.980234 
2363.000000	93.044271 
2362.000000	93.129904 
2361.000000	93.199674 
2360.000000	93.246434 
2359.000000	93.279434 
2358.000000	93.309480 
2357.000000	93.347253 
2356.000000	93.402720 
2355.000000	93.477476 
2354.000000	93.555894 
2353.000000	93.616545 
2352.000000	93.635762 
2351.000000	93.611066 
2350.000000	93.574025 
2349.000000	93.562583 
2348.000000	93.595360 
2347.000000	93.644001 
2346.000000	93.660256 
2345.000000	93.627907 
2344.000000	93.581141 
2343.000000	93.565849 
2342.000000	93.586521 
2341.000000	93.632613 
2340.000000	93.695050 
2339.000000	93.764992 
2338.000000	93.825960 
2337.000000	93.862418 
2336.000000	93.871258 
2335.000000	93.864549 
2334.000000	93.861068 
2333.000000	93.876360 
2332.000000	93.905491 
2331.000000	93.924153 
2330.000000	93.914559 
2329.000000	93.873344 
2328.000000	93.817984 
2327.000000	93.753491 
2326.000000	93.685618 
2325.000000	93.628889 
2324.000000	93.607550 
2323.000000	93.635704 
2322.000000	93.694004 
2321.000000	93.755890 
2320.000000	93.805957 
2319.000000	93.844888 
2318.000000	93.873009 
2317.000000	93.891650 
2316.000000	93.907685 
2315.000000	93.924973 
2314.000000	93.939320 
2313.000000	93.937106 
2312.000000	93.909191 
2311.000000	93.853678 
2310.000000	93.784012 
2309.000000	93.720075 
2308.000000	93.677346 
2307.000000	93.650056 
2306.000000	93.620102 
2305.000000	93.573581 
2304.000000	93.509849 
2303.000000	93.431820 
2302.000000	93.343290 
2301.000000	93.254150 
2300.000000	93.181035 
2299.000000	93.129477 
2298.000000	93.088247 
2297.000000	93.042022 
2296.000000	92.991788 
2295.000000	92.950664 
2294.000000	92.929836 
2293.000000	92.928109 
2292.000000	92.937786 
2291.000000	92.953688 
2290.000000	92.979237 
2289.000000	93.022939 
2288.000000	93.088163 
2287.000000	93.167763 
2286.000000	93.251356 
2285.000000	93.335961 
2284.000000	93.423572 
2283.000000	93.512178 
2282.000000	93.595959 
2281.000000	93.673339 
2280.000000	93.744592 
2279.000000	93.804507 
2278.000000	93.849144 
2277.000000	93.890053 
2276.000000	93.945576 
2275.000000	94.014723 
2274.000000	94.075543 
2273.000000	94.114499 
2272.000000	94.143782 
2271.000000	94.181495 
2270.000000	94.229413 
2269.000000	94.278584 
2268.000000	94.323271 
2267.000000	94.357979 
2266.000000	94.371942 
2265.000000	94.359936 
2264.000000	94.333077 
2263.000000	94.307595 
2262.000000	94.286653 
2261.000000	94.258663 
2260.000000	94.210564 
2259.000000	94.141914 
2258.000000	94.070458 
2257.000000	94.022350 
2256.000000	94.005357 
2255.000000	93.993468 
2254.000000	93.950780 
2253.000000	93.871614 
2252.000000	93.784879 
2251.000000	93.721143 
2250.000000	93.692620 
2249.000000	93.701568 
2248.000000	93.744950 
2247.000000	93.805273 
2246.000000	93.858900 
2245.000000	93.903234 
2244.000000	93.959817 
2243.000000	94.042158 
2242.000000	94.137683 
2241.000000	94.230253 
2240.000000	94.322794 
2239.000000	94.425120 
2238.000000	94.533194 
2237.000000	94.632566 
2236.000000	94.711589 
2235.000000	94.763751 
2234.000000	94.791088 
2233.000000	94.813685 
2232.000000	94.859419 
2231.000000	94.932928 
2230.000000	95.007382 
2229.000000	95.055328 
2228.000000	95.074859 
2227.000000	95.079251 
2226.000000	95.078315 
2225.000000	95.079507 
2224.000000	95.090986 
2223.000000	95.113132 
2222.000000	95.139087 
2221.000000	95.167686 
2220.000000	95.200975 
2219.000000	95.229583 
2218.000000	95.243146 
2217.000000	95.256004 
2216.000000	95.293731 
2215.000000	95.348937 
2214.000000	95.383535 
2213.000000	95.386619 
2212.000000	95.395814 
2211.000000	95.441875 
2210.000000	95.503391 
2209.000000	95.540197 
2208.000000	95.545490 
2207.000000	95.539127 
2206.000000	95.532012 
2205.000000	95.524929 
2204.000000	95.525569 
2203.000000	95.541195 
2202.000000	95.565584 
2201.000000	95.590277 
2200.000000	95.614638 
2199.000000	95.631071 
2198.000000	95.619838 
2197.000000	95.575719 
2196.000000	95.521436 
2195.000000	95.479233 
2194.000000	95.449632 
2193.000000	95.431504 
2192.000000	95.436742 
2191.000000	95.465693 
2190.000000	95.492000 
2189.000000	95.493010 
2188.000000	95.474520 
2187.000000	95.447460 
2186.000000	95.407256 
2185.000000	95.359863 
2184.000000	95.339467 
2183.000000	95.367406 
2182.000000	95.413314 
2181.000000	95.428066 
2180.000000	95.400793 
2179.000000	95.356839 
2178.000000	95.316154 
2177.000000	95.278321 
2176.000000	95.233361 
2175.000000	95.167651 
2174.000000	95.074289 
2173.000000	94.972539 
2172.000000	94.898529 
2171.000000	94.864190 
2170.000000	94.845929 
2169.000000	94.822472 
2168.000000	94.795779 
2167.000000	94.759709 
2166.000000	94.682093 
2165.000000	94.547552 
2164.000000	94.395315 
2163.000000	94.289478 
2162.000000	94.276106 
2161.000000	94.382807 
2160.000000	94.611258 
2159.000000	94.892317 
2158.000000	95.097676 
2157.000000	95.150147 
2156.000000	95.086887 
2155.000000	94.989215 
2154.000000	94.899947 
2153.000000	94.824236 
2152.000000	94.760690 
2151.000000	94.701076 
2150.000000	94.629130 
2149.000000	94.549805 
2148.000000	94.500806 
2147.000000	94.511289 
2146.000000	94.564529 
2145.000000	94.616239 
2144.000000	94.630245 
2143.000000	94.583138 
2142.000000	94.461945 
2141.000000	94.282678 
2140.000000	94.092780 
2139.000000	93.933142 
2138.000000	93.809601 
2137.000000	93.710112 
2136.000000	93.627366 
2135.000000	93.549788 
2134.000000	93.451950 
2133.000000	93.314582 
2132.000000	93.141633 
2131.000000	92.944964 
2130.000000	92.726789 
2129.000000	92.487504 
2128.000000	92.235600 
2127.000000	91.978809 
2126.000000	91.717599 
2125.000000	91.454872 
2124.000000	91.198366 
2123.000000	90.946170 
2122.000000	90.685137 
2121.000000	90.413399 
2120.000000	90.150708 
2119.000000	89.915450 
2118.000000	89.703107 
2117.000000	89.498549 
2116.000000	89.300874 
2115.000000	89.125507 
2114.000000	88.987541 
2113.000000	88.891466 
2112.000000	88.833124 
2111.000000	88.805321 
2110.000000	88.803857 
2109.000000	88.830819 
2108.000000	88.888782 
2107.000000	88.972031 
2106.000000	89.069884 
2105.000000	89.178634 
2104.000000	89.302479 
2103.000000	89.443054 
2102.000000	89.597809 
2101.000000	89.768500 
2100.000000	89.958691 
2099.000000	90.161175 
2098.000000	90.361732 
2097.000000	90.558730 
2096.000000	90.763266 
2095.000000	90.973285 
2094.000000	91.164688 
2093.000000	91.317747 
2092.000000	91.436742 
2091.000000	91.534049 
2090.000000	91.611884 
2089.000000	91.672605 
2088.000000	91.731746 
2087.000000	91.803619 
2086.000000	91.882463 
2085.000000	91.951663 
2084.000000	92.005685 
2083.000000	92.052210 
2082.000000	92.099216 
2081.000000	92.149560 
2080.000000	92.201527 
2079.000000	92.247075 
2078.000000	92.277360 
2077.000000	92.296022 
2076.000000	92.317148 
2075.000000	92.345547 
2074.000000	92.373650 
2073.000000	92.403666 
2072.000000	92.454176 
2071.000000	92.533800 
2070.000000	92.625736 
2069.000000	92.712380 
2068.000000	92.800912 
2067.000000	92.908899 
2066.000000	93.035810 
2065.000000	93.162498 
2064.000000	93.269745 
2063.000000	93.347518 
2062.000000	93.398687 
2061.000000	93.444126 
2060.000000	93.509086 
2059.000000	93.594188 
2058.000000	93.676239 
2057.000000	93.745478 
2056.000000	93.818266 
2055.000000	93.899652 
2054.000000	93.961289 
2053.000000	93.981256 
2052.000000	93.985071 
2051.000000	94.021179 
2050.000000	94.108303 
2049.000000	94.225021 
2048.000000	94.340152 
2047.000000	94.433226 
2046.000000	94.495768 
2045.000000	94.536817 
2044.000000	94.576791 
2043.000000	94.616103 
2042.000000	94.626243 
2041.000000	94.589831 
2040.000000	94.526781 
2039.000000	94.459947 
2038.000000	94.385793 
2037.000000	94.306696 
2036.000000	94.260652 
2035.000000	94.280727 
2034.000000	94.345322 
2033.000000	94.402934 
2032.000000	94.430079 
2031.000000	94.436657 
2030.000000	94.439131 
2029.000000	94.461003 
2028.000000	94.534183 
2027.000000	94.664905 
2026.000000	94.815368 
2025.000000	94.945484 
2024.000000	95.055114 
2023.000000	95.163170 
2022.000000	95.272117 
2021.000000	95.381436 
2020.000000	95.506701 
2019.000000	95.649471 
2018.000000	95.770079 
2017.000000	95.826184 
2016.000000	95.823115 
2015.000000	95.796405 
2014.000000	95.769675 
2013.000000	95.758964 
2012.000000	95.786690 
2011.000000	95.856588 
2010.000000	95.939976 
2009.000000	96.019068 
2008.000000	96.118985 
2007.000000	96.259720 
2006.000000	96.401412 
2005.000000	96.481198 
2004.000000	96.487044 
2003.000000	96.458106 
2002.000000	96.431281 
2001.000000	96.419226 
2000.000000	96.420865 
1999.000000	96.421516 
1998.000000	96.395322 
1997.000000	96.333263 
1996.000000	96.260918 
1995.000000	96.211721 
1994.000000	96.198289 
1993.000000	96.222475 
1992.000000	96.287171 
1991.000000	96.374168 
1990.000000	96.433723 
1989.000000	96.426453 
1988.000000	96.363503 
1987.000000	96.286134 
1986.000000	96.220667 
1985.000000	96.171483 
1984.000000	96.139392 
1983.000000	96.123578 
1982.000000	96.118978 
1981.000000	96.130544 
1980.000000	96.175646 
1979.000000	96.254565 
1978.000000	96.337316 
1977.000000	96.399798 
1976.000000	96.451070 
1975.000000	96.504006 
1974.000000	96.551092 
1973.000000	96.588691 
1972.000000	96.628930 
1971.000000	96.665367 
1970.000000	96.662303 
1969.000000	96.604697 
1968.000000	96.529709 
1967.000000	96.481821 
1966.000000	96.462752 
1965.000000	96.452667 
1964.000000	96.452840 
1963.000000	96.478604 
1962.000000	96.530676 
1961.000000	96.593201 
1960.000000	96.644303 
1959.000000	96.660439 
1958.000000	96.634395 
1957.000000	96.597221 
1956.000000	96.593905 
1955.000000	96.628539 
1954.000000	96.661758 
1953.000000	96.669768 
1952.000000	96.672232 
1951.000000	96.690312 
1950.000000	96.714106 
1949.000000	96.730557 
1948.000000	96.748031 
1947.000000	96.770804 
1946.000000	96.781914 
1945.000000	96.775692 
1944.000000	96.778766 
1943.000000	96.812113 
1942.000000	96.855141 
1941.000000	96.876211 
1940.000000	96.876247 
1939.000000	96.875252 
1938.000000	96.881905 
1937.000000	96.899037 
1936.000000	96.935615 
1935.000000	96.991045 
1934.000000	97.044728 
1933.000000	97.079781 
1932.000000	97.102259 
1931.000000	97.123588 
1930.000000	97.142919 
1929.000000	97.160885 
1928.000000	97.186431 
1927.000000	97.214450 
1926.000000	97.221712 
1925.000000	97.200078 
1924.000000	97.173990 
1923.000000	97.166476 
1922.000000	97.170889 
1921.000000	97.176162 
1920.000000	97.192422 
1919.000000	97.226495 
1918.000000	97.256291 
1917.000000	97.258950 
1916.000000	97.246701 
1915.000000	97.244185 
1914.000000	97.252741 
1913.000000	97.259796 
1912.000000	97.264434 
1911.000000	97.271613 
1910.000000	97.274233 
1909.000000	97.263994 
1908.000000	97.249015 
1907.000000	97.241302 
1906.000000	97.239689 
1905.000000	97.239901 
1904.000000	97.249553 
1903.000000	97.274278 
1902.000000	97.301094 
1901.000000	97.311372 
1900.000000	97.300584 
1899.000000	97.275407 
1898.000000	97.245822 
1897.000000	97.228624 
1896.000000	97.240895 
1895.000000	97.275123 
1894.000000	97.299501 
1893.000000	97.298034 
1892.000000	97.290794 
1891.000000	97.302258 
1890.000000	97.330105 
1889.000000	97.359329 
1888.000000	97.389641 
1887.000000	97.428060 
1886.000000	97.469568 
1885.000000	97.504907 
1884.000000	97.535527 
1883.000000	97.563404 
1882.000000	97.578556 
1881.000000	97.574639 
1880.000000	97.564142 
1879.000000	97.562611 
1878.000000	97.570204 
1877.000000	97.580694 
1876.000000	97.595138 
1875.000000	97.613569 
1874.000000	97.627284 
1873.000000	97.633651 
1872.000000	97.643461 
1871.000000	97.659722 
1870.000000	97.664555 
1869.000000	97.645038 
1868.000000	97.618091 
1867.000000	97.605066 
1866.000000	97.603623 
1865.000000	97.603079 
1864.000000	97.603344 
1863.000000	97.605042 
1862.000000	97.597810 
1861.000000	97.575130 
1860.000000	97.548609 
1859.000000	97.531212 
1858.000000	97.519291 
1857.000000	97.505353 
1856.000000	97.493897 
1855.000000	97.489803 
1854.000000	97.485248 
1853.000000	97.472672 
1852.000000	97.458023 
1851.000000	97.447246 
1850.000000	97.435821 
1849.000000	97.421035 
1848.000000	97.412138 
1847.000000	97.414554 
1846.000000	97.417312 
1845.000000	97.408349 
1844.000000	97.392177 
1843.000000	97.377972 
1842.000000	97.363687 
1841.000000	97.349479 
1840.000000	97.346293 
1839.000000	97.360968 
1838.000000	97.386165 
1837.000000	97.414030 
1836.000000	97.447718 
1835.000000	97.485960 
1834.000000	97.514950 
1833.000000	97.528525 
1832.000000	97.539638 
1831.000000	97.559999 
1830.000000	97.582418 
1829.000000	97.597319 
1828.000000	97.613520 
1827.000000	97.641107 
1826.000000	97.670056 
1825.000000	97.687009 
1824.000000	97.698752 
1823.000000	97.715959 
1822.000000	97.731948 
1821.000000	97.738785 
1820.000000	97.748402 
1819.000000	97.777084 
1818.000000	97.816267 
1817.000000	97.839689 
1816.000000	97.835423 
1815.000000	97.811386 
1814.000000	97.778728 
1813.000000	97.747270 
1812.000000	97.726913 
1811.000000	97.718160 
1810.000000	97.707019 
1809.000000	97.685481 
1808.000000	97.664475 
1807.000000	97.653134 
1806.000000	97.643773 
1805.000000	97.629323 
1804.000000	97.618638 
1803.000000	97.620086 
1802.000000	97.624055 
1801.000000	97.618842 
1800.000000	97.610336 
1799.000000	97.609589 
1798.000000	97.611339 
1797.000000	97.604760 
1796.000000	97.591736 
1795.000000	97.579919 
1794.000000	97.569495 
1793.000000	97.560029 
1792.000000	97.558890 
1791.000000	97.566156 
1790.000000	97.565726 
1789.000000	97.551311 
1788.000000	97.537801 
1787.000000	97.538846 
1786.000000	97.548009 
1785.000000	97.551600 
1784.000000	97.549484 
1783.000000	97.546520 
1782.000000	97.537083 
1781.000000	97.516589 
1780.000000	97.494563 
1779.000000	97.482246 
1778.000000	97.472792 
1777.000000	97.453911 
1776.000000	97.426763 
1775.000000	97.399036 
1774.000000	97.369076 
1773.000000	97.329828 
1772.000000	97.285330 
1771.000000	97.244169 
1770.000000	97.204955 
1769.000000	97.166445 
1768.000000	97.135500 
1767.000000	97.112524 
1766.000000	97.082670 
1765.000000	97.036988 
1764.000000	96.984769 
1763.000000	96.937304 
1762.000000	96.892530 
1761.000000	96.847229 
1760.000000	96.809337 
1759.000000	96.782348 
1758.000000	96.749929 
1757.000000	96.698722 
1756.000000	96.639769 
1755.000000	96.589199 
1754.000000	96.545903 
1753.000000	96.504015 
1752.000000	96.471036 
1751.000000	96.454319 
1750.000000	96.439126 
1749.000000	96.410674 
1748.000000	96.382757 
1747.000000	96.370605 
1746.000000	96.365749 
1745.000000	96.358058 
1744.000000	96.358698 
1743.000000	96.381181 
1742.000000	96.414522 
1741.000000	96.444211 
1740.000000	96.480675 
1739.000000	96.536782 
1738.000000	96.598470 
1737.000000	96.657036 
1736.000000	96.745137 
1735.000000	96.908318 
1734.000000	97.121502 
1733.000000	97.292105 
1732.000000	97.391593 
1731.000000	97.466147 
1730.000000	97.550201 
1729.000000	97.649090 
1728.000000	97.760993 
1727.000000	97.883691 
1726.000000	98.006525 
1725.000000	98.113804 
1724.000000	98.197149 
1723.000000	98.251056 
1722.000000	98.263209 
1721.000000	98.233002 
1720.000000	98.185074 
1719.000000	98.145800 
1718.000000	98.110883 
1717.000000	98.060221 
1716.000000	98.000318 
1715.000000	97.949352 
1714.000000	97.902765 
1713.000000	97.850962 
1712.000000	97.804650 
1711.000000	97.774653 
1710.000000	97.749134 
1709.000000	97.711931 
1708.000000	97.669562 
1707.000000	97.639628 
1706.000000	97.619009 
1705.000000	97.585946 
1704.000000	97.534876 
1703.000000	97.478156 
1702.000000	97.422129 
1701.000000	97.366138 
1700.000000	97.320161 
1699.000000	97.290037 
1698.000000	97.257712 
1697.000000	97.209616 
1696.000000	97.159770 
1695.000000	97.119604 
1694.000000	97.071202 
1693.000000	97.007783 
1692.000000	96.948423 
1691.000000	96.909784 
1690.000000	96.879257 
1689.000000	96.834148 
1688.000000	96.777099 
1687.000000	96.723534 
1686.000000	96.670197 
1685.000000	96.602465 
1684.000000	96.534939 
1683.000000	96.480878 
1682.000000	96.420105 
1681.000000	96.348751 
1680.000000	96.281675 
1679.000000	96.225008 
1678.000000	96.157232 
1677.000000	96.059072 
1676.000000	95.951908 
1675.000000	95.873135 
1674.000000	95.816207 
1673.000000	95.750450 
1672.000000	95.675000 
1671.000000	95.603471 
1670.000000	95.521079 
1669.000000	95.407766 
1668.000000	95.288335 
1667.000000	95.194104 
1666.000000	95.105239 
1665.000000	94.979251 
1664.000000	94.804313 
1663.000000	94.593923 
1662.000000	94.344896 
1661.000000	94.045000 
1660.000000	93.704529 
1659.000000	93.337253 
1658.000000	92.932064 
1657.000000	92.476749 
1656.000000	91.969229 
1655.000000	91.350902 
1654.000000	90.433636 
1653.000000	89.186000 
1652.000000	88.019380 
1651.000000	87.184287 
1650.000000	86.523114 
1649.000000	85.835120 
1648.000000	85.077386 
1647.000000	84.362913 
1646.000000	83.810341 
1645.000000	83.418215 
1644.000000	83.150117 
1643.000000	82.975666 
1642.000000	82.827165 
1641.000000	82.624643 
1640.000000	82.349078 
1639.000000	82.025560 
1638.000000	81.607741 
1637.000000	80.944324 
1636.000000	79.949586 
1635.000000	78.775063 
1634.000000	77.603925 
1633.000000	76.426083 
1632.000000	75.168272 
1631.000000	73.797940 
1630.000000	72.264948 
1629.000000	70.498248 
1628.000000	68.541214 
1627.000000	66.564687 
1626.000000	64.639172 
1625.000000	62.637067 
1624.000000	60.460571 
1623.000000	58.282568 
1622.000000	56.395413 
1621.000000	54.881758 
1620.000000	53.644465 
1619.000000	52.594685 
1618.000000	51.663391 
1617.000000	50.786422 
1616.000000	50.006158 
1615.000000	49.441612 
1614.000000	49.099649 
1613.000000	48.894477 
1612.000000	48.819626 
1611.000000	48.977447 
1610.000000	49.422269 
1609.000000	50.060718 
1608.000000	50.751129 
1607.000000	51.389922 
1606.000000	51.866301 
1605.000000	52.052393 
1604.000000	51.890376 
1603.000000	51.425562 
1602.000000	50.718854 
1601.000000	49.785888 
1600.000000	48.658548 
1599.000000	47.428686 
1598.000000	46.171185 
1597.000000	44.885164 
1596.000000	43.567984 
1595.000000	42.280096 
1594.000000	41.068360 
1593.000000	39.895244 
1592.000000	38.718673 
1591.000000	37.570753 
1590.000000	36.491402 
1589.000000	35.462467 
1588.000000	34.484190 
1587.000000	33.643855 
1586.000000	33.026674 
1585.000000	32.624573 
1584.000000	32.409742 
1583.000000	32.420818 
1582.000000	32.682882 
1581.000000	33.112647 
1580.000000	33.608881 
1579.000000	34.181739 
1578.000000	34.917123 
1577.000000	35.844568 
1576.000000	36.872567 
1575.000000	37.867133 
1574.000000	38.760312 
1573.000000	39.558800 
1572.000000	40.333156 
1571.000000	41.203927 
1570.000000	42.212718 
1569.000000	43.209763 
1568.000000	44.042621 
1567.000000	44.758978 
1566.000000	45.485802 
1565.000000	46.250378 
1564.000000	46.988580 
1563.000000	47.663170 
1562.000000	48.317347 
1561.000000	49.043467 
1560.000000	49.978258 
1559.000000	51.144377 
1558.000000	52.241576 
1557.000000	53.054825 
1556.000000	53.712724 
1555.000000	54.383485 
1554.000000	55.107267 
1553.000000	55.802638 
1552.000000	56.406808 
1551.000000	56.960908 
1550.000000	57.519994 
1549.000000	58.063319 
1548.000000	58.553833 
1547.000000	59.031696 
1546.000000	59.577923 
1545.000000	60.218204 
1544.000000	60.910634 
1543.000000	61.633777 
1542.000000	62.435945 
1541.000000	63.378473 
1540.000000	64.440837 
1539.000000	65.485177 
1538.000000	66.382873 
1537.000000	67.126222 
1536.000000	67.786356 
1535.000000	68.451491 
1534.000000	69.144816 
1533.000000	69.770452 
1532.000000	70.227559 
1531.000000	70.520401 
1530.000000	70.680349 
1529.000000	70.693554 
1528.000000	70.525633 
1527.000000	70.156869 
1526.000000	69.602668 
1525.000000	68.915905 
1524.000000	68.140147 
1523.000000	67.262590 
1522.000000	66.285335 
1521.000000	65.364953 
1520.000000	64.712062 
1519.000000	64.373440 
1518.000000	64.290570 
1517.000000	64.416322 
1516.000000	64.692096 
1515.000000	65.033759 
1514.000000	65.381722 
1513.000000	65.701009 
1512.000000	65.950212 
1511.000000	66.102470 
1510.000000	66.166993 
1509.000000	66.164921 
1508.000000	66.112513 
1507.000000	66.070870 
1506.000000	66.142323 
1505.000000	66.364749 
1504.000000	66.710896 
1503.000000	67.152311 
1502.000000	67.689689 
1501.000000	68.326361 
1500.000000	69.043224 
1499.000000	69.827675 
1498.000000	70.699066 
1497.000000	71.662326 
1496.000000	72.655107 
1495.000000	73.595492 
1494.000000	74.458991 
1493.000000	75.275643 
1492.000000	76.100004 
1491.000000	76.982689 
1490.000000	77.906678 
1489.000000	78.775445 
1488.000000	79.528600 
1487.000000	80.199523 
1486.000000	80.819879 
1485.000000	81.366823 
1484.000000	81.824798 
1483.000000	82.231048 
1482.000000	82.628714 
1481.000000	83.011022 
1480.000000	83.353044 
1479.000000	83.658482 
1478.000000	83.931757 
1477.000000	84.144511 
1476.000000	84.274038 
1475.000000	84.328624 
1474.000000	84.287771 
1473.000000	84.076268 
1472.000000	83.664991 
1471.000000	83.109345 
1470.000000	82.426793 
1469.000000	81.562008 
1468.000000	80.466332 
1467.000000	79.117170 
1466.000000	77.507050 
1465.000000	75.753998 
1464.000000	74.163052 
1463.000000	72.952748 
1462.000000	72.011603 
1461.000000	71.043858 
1460.000000	69.766441 
1459.000000	67.924602 
1458.000000	65.317943 
1457.000000	62.263413 
1456.000000	59.760789 
1455.000000	58.473966 
1454.000000	58.317880 
1453.000000	59.057691 
1452.000000	60.501751 
1451.000000	62.376792 
1450.000000	64.396784 
1449.000000	66.391136 
1448.000000	68.250931 
1447.000000	69.885176 
1446.000000	71.314752 
1445.000000	72.671104 
1444.000000	74.075754 
1443.000000	75.579289 
1442.000000	77.158589 
1441.000000	78.711632 
1440.000000	80.106299 
1439.000000	81.291347 
1438.000000	82.323676 
1437.000000	83.232494 
1436.000000	83.924206 
1435.000000	84.344776 
1434.000000	84.584053 
1433.000000	84.725136 
1432.000000	84.762376 
1431.000000	84.673192 
1430.000000	84.473850 
1429.000000	84.177159 
1428.000000	83.765027 
1427.000000	83.223329 
1426.000000	82.529501 
1425.000000	81.616385 
1424.000000	80.441775 
1423.000000	79.063389 
1422.000000	77.491336 
1421.000000	75.507733 
1420.000000	72.788964 
1419.000000	69.346315 
1418.000000	65.629297 
1417.000000	61.973321 
1416.000000	58.408946 
1415.000000	54.976802 
1414.000000	51.835363 
1413.000000	49.198340 
1412.000000	47.332900 
1411.000000	46.488387 
1410.000000	46.711481 
1409.000000	47.849227 
1408.000000	49.745179 
1407.000000	52.289155 
1406.000000	55.316349 
1405.000000	58.575961 
1404.000000	61.785908 
1403.000000	64.726391 
1402.000000	67.345659 
1401.000000	69.760126 
1400.000000	72.098432 
1399.000000	74.328867 
1398.000000	76.312121 
1397.000000	78.014347 
1396.000000	79.528272 
1395.000000	80.913266 
1394.000000	82.130407 
1393.000000	83.134362 
1392.000000	83.944480 
1391.000000	84.612222 
1390.000000	85.180948 
1389.000000	85.674122 
1388.000000	86.089454 
1387.000000	86.408997 
1386.000000	86.621426 
1385.000000	86.716018 
1384.000000	86.650097 
1383.000000	86.340717 
1382.000000	85.696491 
1381.000000	84.681423 
1380.000000	83.405413 
1379.000000	82.167366 
1378.000000	81.306148 
1377.000000	80.925192 
1376.000000	80.805968 
1375.000000	80.594998 
1374.000000	80.040785 
1373.000000	79.064938 
1372.000000	77.653623 
1371.000000	75.758272 
1370.000000	73.314073 
1369.000000	70.314904 
1368.000000	66.875665 
1367.000000	63.215878 
1366.000000	59.542098 
1365.000000	55.968700 
1364.000000	52.611530 
1363.000000	49.738521 
1362.000000	47.683783 
1361.000000	46.547632 
1360.000000	46.119255 
1359.000000	46.111678 
1358.000000	46.376424 
1357.000000	46.943664 
1356.000000	47.939322 
1355.000000	49.453834 
1354.000000	51.447565 
1353.000000	53.767920 
1352.000000	56.246670 
1351.000000	58.759973 
1350.000000	61.215922 
1349.000000	63.536581 
1348.000000	65.673093 
1347.000000	67.622047 
1346.000000	69.409804 
1345.000000	71.059717 
1344.000000	72.575963 
1343.000000	73.958064 
1342.000000	75.224068 
1341.000000	76.408477 
1340.000000	77.532109 
1339.000000	78.583265 
1338.000000	79.540944 
1337.000000	80.406030 
1336.000000	81.196360 
1335.000000	81.926732 
1334.000000	82.606752 
1333.000000	83.245113 
1332.000000	83.843076 
1331.000000	84.389967 
1330.000000	84.874047 
1329.000000	85.292070 
1328.000000	85.642337 
1327.000000	85.916330 
1326.000000	86.103417 
1325.000000	86.196446 
1324.000000	86.187153 
1323.000000	86.061934 
1322.000000	85.802460 
1321.000000	85.382743 
1320.000000	84.764442 
1319.000000	83.901851 
1318.000000	82.748648 
1317.000000	81.247576 
1316.000000	79.311896 
1315.000000	76.829166 
1314.000000	73.701780 
1313.000000	69.912956 
1312.000000	65.582977 
1311.000000	60.967836 
1310.000000	56.399415 
1309.000000	52.234524 
1308.000000	48.837540 
1307.000000	46.523618 
1306.000000	45.450319 
1305.000000	45.571622 
1304.000000	46.693986 
1303.000000	48.542389 
1302.000000	50.805479 
1301.000000	53.206426 
1300.000000	55.571632 
1299.000000	57.829347 
1298.000000	59.957644 
1297.000000	61.951858 
1296.000000	63.821699 
1295.000000	65.581392 
1294.000000	67.230912 
1293.000000	68.757437 
1292.000000	70.155956 
1291.000000	71.438352 
1290.000000	72.621086 
1289.000000	73.712464 
1288.000000	74.715476 
1287.000000	75.636836 
1286.000000	76.487019 
1285.000000	77.273560 
1284.000000	78.000823 
1283.000000	78.677214 
1282.000000	79.316541 
1281.000000	79.929113 
1280.000000	80.515906 
1279.000000	81.074556 
1278.000000	81.606091 
1277.000000	82.111899 
1276.000000	82.590378 
1275.000000	83.043185 
1274.000000	83.479841 
1273.000000	83.908259 
1272.000000	84.324367 
1271.000000	84.718506 
1270.000000	85.088111 
1269.000000	85.435975 
1268.000000	85.760980 
1267.000000	86.061015 
1266.000000	86.341293 
1265.000000	86.608984 
1264.000000	86.862729 
1263.000000	87.097850 
1262.000000	87.318319 
1261.000000	87.531994 
1260.000000	87.736258 
1259.000000	87.920261 
1258.000000	88.080519 
1257.000000	88.223749 
1256.000000	88.355583 
1255.000000	88.475484 
1254.000000	88.580000 
1253.000000	88.661174 
1252.000000	88.703540 
1251.000000	88.691491 
1250.000000	88.617300 
1249.000000	88.473651 
1248.000000	88.241398 
1247.000000	87.889994 
1246.000000	87.379172 
1245.000000	86.645992 
1244.000000	85.595943 
1243.000000	84.123892 
1242.000000	82.155449 
1241.000000	79.692101 
1240.000000	76.866654 
1239.000000	73.985253 
1238.000000	71.483338 
1237.000000	69.785695 
1236.000000	69.157237 
1235.000000	69.613897 
1234.000000	70.928547 
1233.000000	72.747963 
1232.000000	74.748566 
1231.000000	76.721432 
1230.000000	78.565480 
1229.000000	80.242494 
1228.000000	81.740501 
1227.000000	83.060222 
1226.000000	84.215717 
1225.000000	85.230844 
1224.000000	86.126405 
1223.000000	86.909935 
1222.000000	87.576635 
1221.000000	88.119921 
1220.000000	88.550066 
1219.000000	88.910627 
1218.000000	89.266652 
1217.000000	89.661764 
1216.000000	90.088947 
1215.000000	90.510152 
1214.000000	90.896141 
1213.000000	91.238072 
1212.000000	91.534016 
1211.000000	91.786384 
1210.000000	92.009355 
1209.000000	92.219660 
1208.000000	92.420322 
1207.000000	92.606937 
1206.000000	92.784950 
1205.000000	92.964619 
1204.000000	93.143776 
1203.000000	93.313401 
1202.000000	93.477003 
1201.000000	93.646233 
1200.000000	93.819285 
1199.000000	93.982563 
1198.000000	94.134576 
1197.000000	94.291172 
1196.000000	94.464924 
1195.000000	94.652858 
1194.000000	94.844359 
1193.000000	95.027743 
1192.000000	95.190340 
1191.000000	95.327569 
1190.000000	95.452647 
1189.000000	95.583464 
1188.000000	95.719896 
1187.000000	95.846727 
1186.000000	95.957099 
1185.000000	96.058806 
1184.000000	96.158762 
1183.000000	96.256176 
1182.000000	96.350626 
1181.000000	96.442330 
1180.000000	96.523440 
1179.000000	96.581808 
1178.000000	96.614523 
1177.000000	96.627836 
1176.000000	96.625656 
1175.000000	96.607772 
1174.000000	96.574806 
1173.000000	96.523563 
1172.000000	96.442354 
1171.000000	96.323060 
1170.000000	96.173378 
1169.000000	96.006150 
1168.000000	95.822102 
1167.000000	95.612790 
1166.000000	95.371290 
1165.000000	95.086404 
1164.000000	94.732733 
1163.000000	94.277744 
1162.000000	93.689994 
1161.000000	92.928411 
1160.000000	91.934763 
1159.000000	90.654471 
1158.000000	89.063871 
1157.000000	87.179205 
1156.000000	85.069068 
1155.000000	82.881530 
1154.000000	80.840985 
1153.000000	79.190177 
1152.000000	78.118984 
1151.000000	77.716927 
1150.000000	77.958110 
1149.000000	78.729483 
1148.000000	79.886425 
1147.000000	81.290511 
1146.000000	82.816336 
1145.000000	84.351289 
1144.000000	85.803141 
1143.000000	87.111653 
1142.000000	88.254996 
1141.000000	89.242199 
1140.000000	90.096007 
1139.000000	90.840871 
1138.000000	91.497115 
1137.000000	92.073160 
1136.000000	92.563110 
1135.000000	92.960811 
1134.000000	93.276003 
1133.000000	93.529596 
1132.000000	93.736114 
1131.000000	93.897812 
1130.000000	94.009246 
1129.000000	94.055869 
1128.000000	94.011086 
1127.000000	93.845004 
1126.000000	93.533463 
1125.000000	93.048218 
1124.000000	92.337415 
1123.000000	91.315368 
1122.000000	89.855533 
1121.000000	87.780441 
1120.000000	84.881781 
1119.000000	81.013184 
1118.000000	76.242437 
1117.000000	70.983274 
1116.000000	65.993057 
1115.000000	62.135457 
1114.000000	59.986679 
1113.000000	59.614700 
1112.000000	60.723793 
1111.000000	62.932487 
1110.000000	65.893749 
1109.000000	69.266655 
1108.000000	72.700807 
1107.000000	75.895141 
1106.000000	78.669476 
1105.000000	80.972935 
1104.000000	82.833732 
1103.000000	84.314267 
1102.000000	85.494548 
1101.000000	86.458502 
1100.000000	87.278560 
1099.000000	88.011182 
1098.000000	88.693286 
1097.000000	89.332356 
1096.000000	89.912703 
1095.000000	90.424985 
1094.000000	90.880848 
1093.000000	91.292046 
1092.000000	91.653971 
1091.000000	91.964480 
1090.000000	92.241357 
1089.000000	92.503016 
1088.000000	92.746361 
1087.000000	92.960430 
1086.000000	93.147419 
1085.000000	93.314435 
1084.000000	93.461246 
1083.000000	93.594399 
1082.000000	93.736532 
1081.000000	93.900874 
1080.000000	94.069891 
1079.000000	94.217683 
1078.000000	94.340790 
1077.000000	94.451270 
1076.000000	94.557168 
1075.000000	94.669427 
1074.000000	94.808269 
1073.000000	94.977261 
1072.000000	95.144720 
1071.000000	95.274501 
1070.000000	95.365591 
1069.000000	95.442680 
1068.000000	95.521727 
1067.000000	95.605321 
1066.000000	95.695826 
1065.000000	95.788652 
1064.000000	95.864495 
1063.000000	95.911480 
1062.000000	95.945685 
1061.000000	95.991418 
1060.000000	96.054099 
1059.000000	96.129402 
1058.000000	96.220907 
1057.000000	96.326855 
1056.000000	96.426088 
1055.000000	96.501924 
1054.000000	96.567565 
1053.000000	96.644787 
1052.000000	96.731476 
1051.000000	96.817360 
1050.000000	96.917803 
1049.000000	97.060114 
1048.000000	97.248668 
1047.000000	97.473484 
1046.000000	97.737623 
1045.000000	98.045443 
1044.000000	98.376325 
1043.000000	98.697918 
1042.000000	98.996520 
1041.000000	99.269813 
1040.000000	99.500351 
1039.000000	99.664556 
1038.000000	99.759482 
1037.000000	99.793279 
1036.000000	99.759114 
1035.000000	99.646221 
1034.000000	99.464554 
1033.000000	99.228612 
1032.000000	98.928401 
1031.000000	98.544621 
1030.000000	98.077478 
1029.000000	97.528262 
1028.000000	96.863476 
1027.000000	96.021611 
1026.000000	94.930469 
1025.000000	93.482280 
1024.000000	91.529202 
1023.000000	88.988610 
1022.000000	85.980783 
1021.000000	82.813365 
1020.000000	79.774078 
1019.000000	76.903809 
1018.000000	73.966047 
1017.000000	70.684599 
1016.000000	67.081830 
1015.000000	63.623929 
1014.000000	61.020843 
1013.000000	59.841569 
1012.000000	60.253528 
1011.000000	62.017650 
1010.000000	64.665098 
1009.000000	67.718348 
1008.000000	70.825682 
1007.000000	73.773125 
1006.000000	76.444701 
1005.000000	78.790856 
1004.000000	80.807854 
1003.000000	82.524464 
1002.000000	83.993637 
1001.000000	85.271338 
1000.000000	86.385415 
999.000000	 87.332996 
998.000000	 88.117058 
997.000000	 88.772467 
996.000000	 89.344398 
995.000000	 89.853912 
994.000000	 90.298884 
993.000000	 90.679852 
992.000000	 91.009939 
991.000000	 91.302675 
990.000000	 91.563023 
989.000000	 91.792330 
988.000000	 91.994996 
987.000000	 92.177605 
986.000000	 92.344017 
985.000000	 92.493391 
984.000000	 92.624231 
983.000000	 92.740219 
982.000000	 92.849136 
981.000000	 92.955013 
980.000000	 93.055922 
979.000000	 93.151655 
978.000000	 93.246874 
977.000000	 93.341997 
976.000000	 93.428623 
975.000000	 93.502576 
974.000000	 93.576113 
973.000000	 93.666821 
972.000000	 93.775841 
971.000000	 93.884242 
970.000000	 93.969104 
969.000000	 94.017660 
968.000000	 94.030106 
967.000000	 94.017671 
966.000000	 93.996444 
965.000000	 93.975467 
964.000000	 93.951370 
963.000000	 93.918143 
962.000000	 93.877437 
961.000000	 93.834210 
960.000000	 93.788038 
959.000000	 93.735099 
958.000000	 93.673192 
957.000000	 93.598377 
956.000000	 93.503182 
955.000000	 93.386447 
954.000000	 93.260188 
953.000000	 93.139338 
952.000000	 93.029203 
951.000000	 92.928566 
950.000000	 92.838231 
949.000000	 92.759471 
948.000000	 92.690509 
947.000000	 92.632376 
946.000000	 92.593007 
945.000000	 92.578253 
944.000000	 92.583612 
943.000000	 92.600973 
942.000000	 92.627642 
941.000000	 92.661699 
940.000000	 92.694470 
939.000000	 92.716536 
938.000000	 92.727504 
937.000000	 92.731487 
936.000000	 92.725206 
935.000000	 92.697367 
934.000000	 92.637429 
933.000000	 92.538630 
932.000000	 92.393178 
931.000000	 92.187112 
930.000000	 91.895706 
929.000000	 91.479464 
928.000000	 90.886244 
927.000000	 90.056038 
926.000000	 88.916609 
925.000000	 87.380043 
924.000000	 85.373193 
923.000000	 82.909969 
922.000000	 80.167087 
921.000000	 77.516986 
920.000000	 75.480047 
919.000000	 74.556637 
918.000000	 74.982803 
917.000000	 76.594260 
916.000000	 78.929083 
915.000000	 81.473991 
914.000000	 83.862894 
913.000000	 85.926991 
912.000000	 87.634311 
911.000000	 89.017876 
910.000000	 90.135503 
909.000000	 91.042416 
908.000000	 91.774005 
907.000000	 92.355530 
906.000000	 92.821054 
905.000000	 93.207939 
904.000000	 93.537293 
903.000000	 93.813171 
902.000000	 94.035762 
901.000000	 94.205010 
900.000000	 94.321920 
899.000000	 94.401045 
898.000000	 94.471898 
897.000000	 94.553176 
896.000000	 94.635926 
895.000000	 94.706205 
894.000000	 94.770424 
893.000000	 94.839985 
892.000000	 94.904950 
891.000000	 94.946875 
890.000000	 94.969314 
889.000000	 94.992009 
888.000000	 95.020744 
887.000000	 95.045778 
886.000000	 95.065785 
885.000000	 95.090635 
884.000000	 95.122677 
883.000000	 95.157197 
882.000000	 95.200060 
881.000000	 95.262809 
880.000000	 95.339700 
879.000000	 95.410834 
878.000000	 95.469916 
877.000000	 95.528301 
876.000000	 95.588729 
875.000000	 95.635442 
874.000000	 95.654667 
873.000000	 95.646730 
872.000000	 95.614233 
871.000000	 95.555755 
870.000000	 95.475826 
869.000000	 95.385764 
868.000000	 95.288485 
867.000000	 95.170777 
866.000000	 95.011196 
865.000000	 94.788161 
864.000000	 94.482642 
863.000000	 94.079981 
862.000000	 93.561868 
861.000000	 92.883039 
860.000000	 91.956483 
859.000000	 90.665839 
858.000000	 88.880669 
857.000000	 86.453591 
856.000000	 83.240182 
855.000000	 79.190405 
854.000000	 74.471537 
853.000000	 69.521421 
852.000000	 64.974735 
851.000000	 61.473498 
850.000000	 59.447691 
849.000000	 59.020231 
848.000000	 60.084608 
847.000000	 62.406524 
846.000000	 65.636953 
845.000000	 69.314967 
844.000000	 72.958022 
843.000000	 76.205534 
842.000000	 78.908036 
841.000000	 81.096580 
840.000000	 82.876181 
839.000000	 84.344909 
838.000000	 85.575184 
837.000000	 86.617831 
836.000000	 87.503726 
835.000000	 88.254834 
834.000000	 88.898357 
833.000000	 89.459085 
832.000000	 89.941980 
831.000000	 90.342328 
830.000000	 90.675922 
829.000000	 90.981048 
828.000000	 91.285904 
827.000000	 91.589305 
826.000000	 91.876271 
825.000000	 92.136535 
824.000000	 92.365176 
823.000000	 92.563512 
822.000000	 92.743408 
821.000000	 92.914573 
820.000000	 93.067356 
819.000000	 93.184109 
818.000000	 93.266854 
817.000000	 93.338502 
816.000000	 93.416726 
815.000000	 93.500584 
814.000000	 93.583250 
813.000000	 93.663760 
812.000000	 93.742842 
811.000000	 93.818806 
810.000000	 93.892001 
809.000000	 93.965437 
808.000000	 94.038883 
807.000000	 94.108793 
806.000000	 94.174296 
805.000000	 94.237818 
804.000000	 94.302234 
803.000000	 94.372379 
802.000000	 94.452633 
801.000000	 94.534755 
800.000000	 94.595245 
799.000000	 94.616202 
798.000000	 94.604273 
797.000000	 94.578983 
796.000000	 94.548997 
795.000000	 94.509802 
794.000000	 94.454018 
793.000000	 94.369848 
792.000000	 94.240037 
791.000000	 94.061065 
790.000000	 93.856106 
789.000000	 93.647965 
788.000000	 93.420773 
787.000000	 93.125154 
786.000000	 92.720093 
785.000000	 92.194640 
784.000000	 91.549791 
783.000000	 90.774233 
782.000000	 89.836367 
781.000000	 88.684661 
780.000000	 87.256229 
779.000000	 85.502354 
778.000000	 83.417557 
777.000000	 81.051116 
776.000000	 78.507087 
775.000000	 75.946715 
774.000000	 73.586985 
773.000000	 71.689165 
772.000000	 70.532260 
771.000000	 70.345467 
770.000000	 71.203929 
769.000000	 72.968481 
768.000000	 75.334171 
767.000000	 77.949817 
766.000000	 80.525606 
765.000000	 82.877410 
764.000000	 84.911747 
763.000000	 86.597398 
762.000000	 87.954299 
761.000000	 89.042127 
760.000000	 89.929927 
759.000000	 90.666918 
758.000000	 91.278806 
757.000000	 91.781703 
756.000000	 92.192094 
755.000000	 92.526649 
754.000000	 92.800085 
753.000000	 93.029349 
752.000000	 93.242481 
751.000000	 93.475696 
750.000000	 93.746725 
749.000000	 94.029449 
748.000000	 94.271750 
747.000000	 94.449031 
746.000000	 94.589063 
745.000000	 94.734026 
744.000000	 94.890852 
743.000000	 95.033050 
742.000000	 95.141175 
741.000000	 95.224790 
740.000000	 95.308757 
739.000000	 95.410624 
738.000000	 95.528154 
737.000000	 95.640474 
736.000000	 95.727328 
735.000000	 95.793564 
734.000000	 95.864168 
733.000000	 95.948310 
732.000000	 96.023802 
731.000000	 96.069299 
730.000000	 96.095909 
729.000000	 96.130362 
728.000000	 96.183016 
727.000000	 96.249581 
726.000000	 96.327823 
725.000000	 96.412591 
724.000000	 96.486263 
723.000000	 96.535005 
722.000000	 96.567151 
721.000000	 96.599845 
720.000000	 96.634422 
719.000000	 96.658752 
718.000000	 96.666820 
717.000000	 96.659606 
716.000000	 96.635388 
715.000000	 96.597658 
714.000000	 96.561769 
713.000000	 96.534980 
712.000000	 96.501232 
711.000000	 96.444284 
710.000000	 96.376825 
709.000000	 96.328343 
708.000000	 96.312591 
707.000000	 96.320481 
706.000000	 96.331206 
705.000000	 96.320442 
704.000000	 96.275940 
703.000000	 96.219538 
702.000000	 96.196722 
701.000000	 96.223572 
700.000000	 96.260264 
699.000000	 96.260957 
698.000000	 96.229957 
697.000000	 96.204014 
696.000000	 96.198441 
695.000000	 96.199835 
694.000000	 96.199952 
693.000000	 96.198779 
692.000000	 96.181486 
691.000000	 96.132458 
690.000000	 96.070144 
689.000000	 96.036590 
688.000000	 96.046312 
687.000000	 96.071179 
686.000000	 96.080351 
685.000000	 96.066421 
684.000000	 96.035403 
683.000000	 95.999513 
682.000000	 95.973674 
681.000000	 95.956472 
680.000000	 95.924941 
679.000000	 95.873628 
678.000000	 95.839881 
677.000000	 95.855391 
676.000000	 95.890580 
675.000000	 95.879186 
674.000000	 95.788273 
673.000000	 95.647522 
672.000000	 95.509747 
671.000000	 95.408802 
670.000000	 95.333048 
669.000000	 95.232059 
668.000000	 95.020579 
667.000000	 94.684797 
666.000000	 94.348820 
665.000000	 94.044398 
664.000000	 93.655694 
663.000000	 93.083024 
662.000000	 92.314074 
661.000000	 91.372174 
660.000000	 90.239881 
659.000000	 88.860337 
658.000000	 87.248019 
657.000000	 85.323139 
656.000000	 83.113496 
655.000000	 80.325684 
654.000000	 77.409218 
653.000000	 74.578214 
652.000000	 71.766038 
651.000000	 69.313117 
650.000000	 67.234255 

