PE IR                   SPECTRUM    ASCII       PEDS        1.60        
  -1
~SP.SP
18/03/22
18:32:39.00
18/03/22
18:32:39.00
carrillo
Vial
650.000000
16









SPECTRUM 100,CPU32 MAIN 00.02.8200 12-DECEMBER-2006 10:00:00
MIR TGS
MIR
OPTKBR
78890
0.200000

4.000000
STRONG
RATIO
SPECTRUM
MAGNITUDE
UNIVERSAL ATR
DOUBLE

COMBINED


0


#HDR
-1
-1
#GR
CM-1
%T
0.00002384185791015625
0.0
4000.000000
-1.000000
3351
8
98.901271
50.739573
#DATA
4000.000000	98.847200 
3999.000000	98.849964 
3998.000000	98.852182 
3997.000000	98.853530 
3996.000000	98.851672 
3995.000000	98.845013 
3994.000000	98.835238 
3993.000000	98.826952 
3992.000000	98.824588 
3991.000000	98.829425 
3990.000000	98.838885 
3989.000000	98.848503 
3988.000000	98.855135 
3987.000000	98.858655 
3986.000000	98.860584 
3985.000000	98.861571 
3984.000000	98.860943 
3983.000000	98.858493 
3982.000000	98.855566 
3981.000000	98.853983 
3980.000000	98.854600 
3979.000000	98.857258 
3978.000000	98.861342 
3977.000000	98.865803 
3976.000000	98.869307 
3975.000000	98.871233 
3974.000000	98.872366 
3973.000000	98.874019 
3972.000000	98.876408 
3971.000000	98.878152 
3970.000000	98.877262 
3969.000000	98.872826 
3968.000000	98.866358 
3967.000000	98.861507 
3966.000000	98.861445 
3965.000000	98.865857 
3964.000000	98.870916 
3963.000000	98.872660 
3962.000000	98.870369 
3961.000000	98.866402 
3960.000000	98.863327 
3959.000000	98.861886 
3958.000000	98.861212 
3957.000000	98.860109 
3956.000000	98.858235 
3955.000000	98.856614 
3954.000000	98.856938 
3953.000000	98.860065 
3952.000000	98.865189 
3951.000000	98.870458 
3950.000000	98.874021 
3949.000000	98.874517 
3948.000000	98.871564 
3947.000000	98.866316 
3946.000000	98.861133 
3945.000000	98.858461 
3944.000000	98.859806 
3943.000000	98.864812 
3942.000000	98.870738 
3941.000000	98.873561 
3940.000000	98.870446 
3939.000000	98.861883 
3938.000000	98.851825 
3937.000000	98.845042 
3936.000000	98.844007 
3935.000000	98.848059 
3934.000000	98.854750 
3933.000000	98.861266 
3932.000000	98.865153 
3931.000000	98.865121 
3930.000000	98.861575 
3929.000000	98.856183 
3928.000000	98.851111 
3927.000000	98.848952 
3926.000000	98.852537 
3925.000000	98.862790 
3924.000000	98.876216 
3923.000000	98.886159 
3922.000000	98.887359 
3921.000000	98.879674 
3920.000000	98.868152 
3919.000000	98.859592 
3918.000000	98.857539 
3917.000000	98.859881 
3916.000000	98.861485 
3915.000000	98.859271 
3914.000000	98.854429 
3913.000000	98.850535 
3912.000000	98.849851 
3911.000000	98.851663 
3910.000000	98.853615 
3909.000000	98.854427 
3908.000000	98.855014 
3907.000000	98.857064 
3906.000000	98.860797 
3905.000000	98.864170 
3904.000000	98.864821 
3903.000000	98.862998 
3902.000000	98.861233 
3901.000000	98.860850 
3900.000000	98.860979 
3899.000000	98.861325 
3898.000000	98.863855 
3897.000000	98.870611 
3896.000000	98.880510 
3895.000000	98.889400 
3894.000000	98.892610 
3893.000000	98.888132 
3892.000000	98.878215 
3891.000000	98.867829 
3890.000000	98.860425 
3889.000000	98.855148 
3888.000000	98.849578 
3887.000000	98.845261 
3886.000000	98.847654 
3885.000000	98.858286 
3884.000000	98.870420 
3883.000000	98.875508 
3882.000000	98.871401 
3881.000000	98.863288 
3880.000000	98.858092 
3879.000000	98.858749 
3878.000000	98.863192 
3877.000000	98.867253 
3876.000000	98.869245 
3875.000000	98.871722 
3874.000000	98.877951 
3873.000000	98.887423 
3872.000000	98.896252 
3871.000000	98.901102 
3870.000000	98.901271 
3869.000000	98.897478 
3868.000000	98.889937 
3867.000000	98.879113 
3866.000000	98.868773 
3865.000000	98.864830 
3864.000000	98.868288 
3863.000000	98.873077 
3862.000000	98.873404 
3861.000000	98.869973 
3860.000000	98.867920 
3859.000000	98.871743 
3858.000000	98.881959 
3857.000000	98.893965 
3856.000000	98.899583 
3855.000000	98.894305 
3854.000000	98.885983 
3853.000000	98.885572 
3852.000000	98.891633 
3851.000000	98.895964 
3850.000000	98.894003 
3849.000000	98.886940 
3848.000000	98.877747 
3847.000000	98.868438 
3846.000000	98.860896 
3845.000000	98.857411 
3844.000000	98.859378 
3843.000000	98.866260 
3842.000000	98.875585 
3841.000000	98.884152 
3840.000000	98.889383 
3839.000000	98.890230 
3838.000000	98.887443 
3837.000000	98.883037 
3836.000000	98.878511 
3835.000000	98.873740 
3834.000000	98.867785 
3833.000000	98.860620 
3832.000000	98.853904 
3831.000000	98.849684 
3830.000000	98.848249 
3829.000000	98.848230 
3828.000000	98.849037 
3827.000000	98.852090 
3826.000000	98.857914 
3825.000000	98.862858 
3824.000000	98.860816 
3823.000000	98.850317 
3822.000000	98.839914 
3821.000000	98.841169 
3820.000000	98.855116 
3819.000000	98.872462 
3818.000000	98.883236 
3817.000000	98.883645 
3816.000000	98.877466 
3815.000000	98.870206 
3814.000000	98.863244 
3813.000000	98.856202 
3812.000000	98.851650 
3811.000000	98.853317 
3810.000000	98.860870 
3809.000000	98.868710 
3808.000000	98.870911 
3807.000000	98.867042 
3806.000000	98.860995 
3805.000000	98.854905 
3804.000000	98.848374 
3803.000000	98.843444 
3802.000000	98.845509 
3801.000000	98.856083 
3800.000000	98.868561 
3799.000000	98.874561 
3798.000000	98.871786 
3797.000000	98.865114 
3796.000000	98.861331 
3795.000000	98.863254 
3794.000000	98.868611 
3793.000000	98.873482 
3792.000000	98.875833 
3791.000000	98.875941 
3790.000000	98.874983 
3789.000000	98.873674 
3788.000000	98.871771 
3787.000000	98.868503 
3786.000000	98.863699 
3785.000000	98.858361 
3784.000000	98.853580 
3783.000000	98.848971 
3782.000000	98.843257 
3781.000000	98.837516 
3780.000000	98.836491 
3779.000000	98.844153 
3778.000000	98.858001 
3777.000000	98.870285 
3776.000000	98.874733 
3775.000000	98.871697 
3774.000000	98.866409 
3773.000000	98.862621 
3772.000000	98.859481 
3771.000000	98.854726 
3770.000000	98.848888 
3769.000000	98.844768 
3768.000000	98.843753 
3767.000000	98.844831 
3766.000000	98.847211 
3765.000000	98.851653 
3764.000000	98.858193 
3763.000000	98.863997 
3762.000000	98.865256 
3761.000000	98.861437 
3760.000000	98.855859 
3759.000000	98.851576 
3758.000000	98.848437 
3757.000000	98.845051 
3756.000000	98.841348 
3755.000000	98.838879 
3754.000000	98.839917 
3753.000000	98.845631 
3752.000000	98.853179 
3751.000000	98.855327 
3750.000000	98.848369 
3749.000000	98.838491 
3748.000000	98.832485 
3747.000000	98.828751 
3746.000000	98.821096 
3745.000000	98.807601 
3744.000000	98.794553 
3743.000000	98.786505 
3742.000000	98.778368 
3741.000000	98.765481 
3740.000000	98.750658 
3739.000000	98.738845 
3738.000000	98.732872 
3737.000000	98.734877 
3736.000000	98.746403 
3735.000000	98.763021 
3734.000000	98.774149 
3733.000000	98.772626 
3732.000000	98.760831 
3731.000000	98.746804 
3730.000000	98.737012 
3729.000000	98.733854 
3728.000000	98.737628 
3727.000000	98.747258 
3726.000000	98.759318 
3725.000000	98.769111 
3724.000000	98.774328 
3723.000000	98.776553 
3722.000000	98.778697 
3721.000000	98.782771 
3720.000000	98.789350 
3719.000000	98.797297 
3718.000000	98.803752 
3717.000000	98.805169 
3716.000000	98.799543 
3715.000000	98.787553 
3714.000000	98.772482 
3713.000000	98.759530 
3712.000000	98.752456 
3711.000000	98.749925 
3710.000000	98.747965 
3709.000000	98.745751 
3708.000000	98.745012 
3707.000000	98.746176 
3706.000000	98.747916 
3705.000000	98.749120 
3704.000000	98.750443 
3703.000000	98.753394 
3702.000000	98.757622 
3701.000000	98.760207 
3700.000000	98.758318 
3699.000000	98.750989 
3698.000000	98.739026 
3697.000000	98.724447 
3696.000000	98.709036 
3695.000000	98.692871 
3694.000000	98.675356 
3693.000000	98.657628 
3692.000000	98.641968 
3691.000000	98.628343 
3690.000000	98.612227 
3689.000000	98.589057 
3688.000000	98.560746 
3687.000000	98.532653 
3686.000000	98.506198 
3685.000000	98.479980 
3684.000000	98.453961 
3683.000000	98.429144 
3682.000000	98.406359 
3681.000000	98.386414 
3680.000000	98.370954 
3679.000000	98.361010 
3678.000000	98.355106 
3677.000000	98.350751 
3676.000000	98.347243 
3675.000000	98.344690 
3674.000000	98.343468 
3673.000000	98.342996 
3672.000000	98.340608 
3671.000000	98.336166 
3670.000000	98.333686 
3669.000000	98.336026 
3668.000000	98.342294 
3667.000000	98.349234 
3666.000000	98.353027 
3665.000000	98.352182 
3664.000000	98.348257 
3663.000000	98.342896 
3662.000000	98.335696 
3661.000000	98.325609 
3660.000000	98.313335 
3659.000000	98.300799 
3658.000000	98.289175 
3657.000000	98.278337 
3656.000000	98.268093 
3655.000000	98.258490 
3654.000000	98.248453 
3653.000000	98.235953 
3652.000000	98.220543 
3651.000000	98.204768 
3650.000000	98.191472 
3649.000000	98.179149 
3648.000000	98.164957 
3647.000000	98.150461 
3646.000000	98.138017 
3645.000000	98.126113 
3644.000000	98.110647 
3643.000000	98.088585 
3642.000000	98.060369 
3641.000000	98.029514 
3640.000000	98.000345 
3639.000000	97.975270 
3638.000000	97.953308 
3637.000000	97.930851 
3636.000000	97.905226 
3635.000000	97.878296 
3634.000000	97.855155 
3633.000000	97.837786 
3632.000000	97.821005 
3631.000000	97.796729 
3630.000000	97.764185 
3629.000000	97.733717 
3628.000000	97.714115 
3627.000000	97.703168 
3626.000000	97.693208 
3625.000000	97.679734 
3624.000000	97.664016 
3623.000000	97.648708 
3622.000000	97.633316 
3621.000000	97.614705 
3620.000000	97.590619 
3619.000000	97.561474 
3618.000000	97.529529 
3617.000000	97.496805 
3616.000000	97.463278 
3615.000000	97.427850 
3614.000000	97.390766 
3613.000000	97.353880 
3612.000000	97.318565 
3611.000000	97.283725 
3610.000000	97.246631 
3609.000000	97.206941 
3608.000000	97.167895 
3607.000000	97.132383 
3606.000000	97.100402 
3605.000000	97.070192 
3604.000000	97.040425 
3603.000000	97.010661 
3602.000000	96.980390 
3601.000000	96.948310 
3600.000000	96.912756 
3599.000000	96.872741 
3598.000000	96.828821 
3597.000000	96.783017 
3596.000000	96.737687 
3595.000000	96.694320 
3594.000000	96.653688 
3593.000000	96.617029 
3592.000000	96.585275 
3591.000000	96.556217 
3590.000000	96.523483 
3589.000000	96.480682 
3588.000000	96.427369 
3587.000000	96.370262 
3586.000000	96.318397 
3585.000000	96.276700 
3584.000000	96.243068 
3583.000000	96.211070 
3582.000000	96.175370 
3581.000000	96.134847 
3580.000000	96.091615 
3579.000000	96.047433 
3578.000000	96.001335 
3577.000000	95.950898 
3576.000000	95.895245 
3575.000000	95.837021 
3574.000000	95.781675 
3573.000000	95.734051 
3572.000000	95.694112 
3571.000000	95.655422 
3570.000000	95.608998 
3569.000000	95.550702 
3568.000000	95.485191 
3567.000000	95.419869 
3566.000000	95.356814 
3565.000000	95.294606 
3564.000000	95.233225 
3563.000000	95.173748 
3562.000000	95.116191 
3561.000000	95.059331 
3560.000000	95.002512 
3559.000000	94.946547 
3558.000000	94.892342 
3557.000000	94.839354 
3556.000000	94.785485 
3555.000000	94.727927 
3554.000000	94.664853 
3553.000000	94.597833 
3552.000000	94.532252 
3551.000000	94.473139 
3550.000000	94.419649 
3549.000000	94.365035 
3548.000000	94.303242 
3547.000000	94.235194 
3546.000000	94.167469 
3545.000000	94.104654 
3544.000000	94.044811 
3543.000000	93.982879 
3542.000000	93.916570 
3541.000000	93.847928 
3540.000000	93.780181 
3539.000000	93.714550 
3538.000000	93.650450 
3537.000000	93.587388 
3536.000000	93.524982 
3535.000000	93.461728 
3534.000000	93.395725 
3533.000000	93.327086 
3532.000000	93.258338 
3531.000000	93.192085 
3530.000000	93.129410 
3529.000000	93.070916 
3528.000000	93.017510 
3527.000000	92.968426 
3526.000000	92.919697 
3525.000000	92.866736 
3524.000000	92.808541 
3523.000000	92.748519 
3522.000000	92.691290 
3521.000000	92.639184 
3520.000000	92.590928 
3519.000000	92.542666 
3518.000000	92.490830 
3517.000000	92.435438 
3516.000000	92.380500 
3515.000000	92.330564 
3514.000000	92.286983 
3513.000000	92.247712 
3512.000000	92.209841 
3511.000000	92.171426 
3510.000000	92.131849 
3509.000000	92.092034 
3508.000000	92.054336 
3507.000000	92.020981 
3506.000000	91.992345 
3505.000000	91.967063 
3504.000000	91.943017 
3503.000000	91.917556 
3502.000000	91.887934 
3501.000000	91.853284 
3500.000000	91.816409 
3499.000000	91.782704 
3498.000000	91.756416 
3497.000000	91.737191 
3496.000000	91.720109 
3495.000000	91.699773 
3494.000000	91.674855 
3493.000000	91.648722 
3492.000000	91.625629 
3491.000000	91.606813 
3490.000000	91.590394 
3489.000000	91.574298 
3488.000000	91.558152 
3487.000000	91.542556 
3486.000000	91.527841 
3485.000000	91.513862 
3484.000000	91.500064 
3483.000000	91.485477 
3482.000000	91.469446 
3481.000000	91.452408 
3480.000000	91.435079 
3479.000000	91.417299 
3478.000000	91.399255 
3477.000000	91.383624 
3476.000000	91.374132 
3475.000000	91.370856 
3474.000000	91.368628 
3473.000000	91.361663 
3472.000000	91.348685 
3471.000000	91.332688 
3470.000000	91.316959 
3469.000000	91.302612 
3468.000000	91.288940 
3467.000000	91.274446 
3466.000000	91.257699 
3465.000000	91.238442 
3464.000000	91.218149 
3463.000000	91.199072 
3462.000000	91.182497 
3461.000000	91.167803 
3460.000000	91.152657 
3459.000000	91.134031 
3458.000000	91.109980 
3457.000000	91.081050 
3456.000000	91.049607 
3455.000000	91.017428 
3454.000000	90.983970 
3453.000000	90.946807 
3452.000000	90.903194 
3451.000000	90.851628 
3450.000000	90.793022 
3449.000000	90.730318 
3448.000000	90.665714 
3447.000000	90.598003 
3446.000000	90.523899 
3445.000000	90.442355 
3444.000000	90.356249 
3443.000000	90.270105 
3442.000000	90.187715 
3441.000000	90.112047 
3440.000000	90.045855 
3439.000000	89.991248 
3438.000000	89.949032 
3437.000000	89.918683 
3436.000000	89.898452 
3435.000000	89.885901 
3434.000000	89.879726 
3433.000000	89.881169 
3432.000000	89.892003 
3431.000000	89.910695 
3430.000000	89.932218 
3429.000000	89.952338 
3428.000000	89.970941 
3427.000000	89.990898 
3426.000000	90.015127 
3425.000000	90.044856 
3424.000000	90.078201 
3423.000000	90.109184 
3422.000000	90.130442 
3421.000000	90.139549 
3420.000000	90.142057 
3419.000000	90.146865 
3418.000000	90.158935 
3417.000000	90.177054 
3416.000000	90.196895 
3415.000000	90.214559 
3414.000000	90.228093 
3413.000000	90.237578 
3412.000000	90.244330 
3411.000000	90.249796 
3410.000000	90.255355 
3409.000000	90.262718 
3408.000000	90.273093 
3407.000000	90.285404 
3406.000000	90.296496 
3405.000000	90.303822 
3404.000000	90.307183 
3403.000000	90.307738 
3402.000000	90.306658 
3401.000000	90.305292 
3400.000000	90.305110 
3399.000000	90.306377 
3398.000000	90.307830 
3397.000000	90.308420 
3396.000000	90.308438 
3395.000000	90.308082 
3394.000000	90.305913 
3393.000000	90.299753 
3392.000000	90.288694 
3391.000000	90.273821 
3390.000000	90.257512 
3389.000000	90.242153 
3388.000000	90.228465 
3387.000000	90.214836 
3386.000000	90.199281 
3385.000000	90.181943 
3384.000000	90.163953 
3383.000000	90.143996 
3382.000000	90.118835 
3381.000000	90.088490 
3380.000000	90.058229 
3379.000000	90.033008 
3378.000000	90.011041 
3377.000000	89.985240 
3376.000000	89.950746 
3375.000000	89.909522 
3374.000000	89.867764 
3373.000000	89.830142 
3372.000000	89.796078 
3371.000000	89.760315 
3370.000000	89.717154 
3369.000000	89.665295 
3368.000000	89.608720 
3367.000000	89.552364 
3366.000000	89.497247 
3365.000000	89.440327 
3364.000000	89.378610 
3363.000000	89.312431 
3362.000000	89.244859 
3361.000000	89.178602 
3360.000000	89.113465 
3359.000000	89.046240 
3358.000000	88.972928 
3357.000000	88.891562 
3356.000000	88.803519 
3355.000000	88.712740 
3354.000000	88.623571 
3353.000000	88.538207 
3352.000000	88.454977 
3351.000000	88.369310 
3350.000000	88.277441 
3349.000000	88.179216 
3348.000000	88.076969 
3347.000000	87.972545 
3346.000000	87.866704 
3345.000000	87.760589 
3344.000000	87.655491 
3343.000000	87.550928 
3342.000000	87.444723 
3341.000000	87.335614 
3340.000000	87.224587 
3339.000000	87.113209 
3338.000000	87.001861 
3337.000000	86.890043 
3336.000000	86.777341 
3335.000000	86.663701 
3334.000000	86.549558 
3333.000000	86.435734 
3332.000000	86.322301 
3331.000000	86.207773 
3330.000000	86.090801 
3329.000000	85.972672 
3328.000000	85.856783 
3327.000000	85.745286 
3326.000000	85.637086 
3325.000000	85.528928 
3324.000000	85.417432 
3323.000000	85.300844 
3322.000000	85.180541 
3321.000000	85.060636 
3320.000000	84.944651 
3319.000000	84.832976 
3318.000000	84.724961 
3317.000000	84.622139 
3316.000000	84.526487 
3315.000000	84.436087 
3314.000000	84.346001 
3313.000000	84.254254 
3312.000000	84.164140 
3311.000000	84.079777 
3310.000000	84.001829 
3309.000000	83.928447 
3308.000000	83.857609 
3307.000000	83.787021 
3306.000000	83.714294 
3305.000000	83.639563 
3304.000000	83.566674 
3303.000000	83.500034 
3302.000000	83.441097 
3301.000000	83.388954 
3300.000000	83.343048 
3299.000000	83.303756 
3298.000000	83.271064 
3297.000000	83.243890 
3296.000000	83.220462 
3295.000000	83.198919 
3294.000000	83.178297 
3293.000000	83.159533 
3292.000000	83.144901 
3291.000000	83.136003 
3290.000000	83.132728 
3289.000000	83.134152 
3288.000000	83.139724 
3287.000000	83.149543 
3286.000000	83.163961 
3285.000000	83.182619 
3284.000000	83.203603 
3283.000000	83.225034 
3282.000000	83.248797 
3281.000000	83.281075 
3280.000000	83.326696 
3279.000000	83.383540 
3278.000000	83.444927 
3277.000000	83.507083 
3276.000000	83.571898 
3275.000000	83.642666 
3274.000000	83.720023 
3273.000000	83.802405 
3272.000000	83.887587 
3271.000000	83.973002 
3270.000000	84.057231 
3269.000000	84.142595 
3268.000000	84.234273 
3267.000000	84.335408 
3266.000000	84.444180 
3265.000000	84.556213 
3264.000000	84.668433 
3263.000000	84.780271 
3262.000000	84.893308 
3261.000000	85.010875 
3260.000000	85.136298 
3259.000000	85.269911 
3258.000000	85.408226 
3257.000000	85.546551 
3256.000000	85.682048 
3255.000000	85.814976 
3254.000000	85.948861 
3253.000000	86.089235 
3252.000000	86.239589 
3251.000000	86.397309 
3250.000000	86.554938 
3249.000000	86.706453 
3248.000000	86.851675 
3247.000000	86.994800 
3246.000000	87.140362 
3245.000000	87.290773 
3244.000000	87.445559 
3243.000000	87.601588 
3242.000000	87.755048 
3241.000000	87.904120 
3240.000000	88.049560 
3239.000000	88.193268 
3238.000000	88.337455 
3237.000000	88.484231 
3236.000000	88.633421 
3235.000000	88.780669 
3234.000000	88.920500 
3233.000000	89.052275 
3232.000000	89.181148 
3231.000000	89.312287 
3230.000000	89.445962 
3229.000000	89.578797 
3228.000000	89.707354 
3227.000000	89.829294 
3226.000000	89.943556 
3225.000000	90.051654 
3224.000000	90.157562 
3223.000000	90.264562 
3222.000000	90.372718 
3221.000000	90.480020 
3220.000000	90.584619 
3219.000000	90.685159 
3218.000000	90.780668 
3217.000000	90.871400 
3216.000000	90.958340 
3215.000000	91.040807 
3214.000000	91.116321 
3213.000000	91.184409 
3212.000000	91.248822 
3211.000000	91.313970 
3210.000000	91.380241 
3209.000000	91.444714 
3208.000000	91.505611 
3207.000000	91.564061 
3206.000000	91.622079 
3205.000000	91.680739 
3204.000000	91.740156 
3203.000000	91.799489 
3202.000000	91.856764 
3201.000000	91.910013 
3200.000000	91.959121 
3199.000000	92.006110 
3198.000000	92.053770 
3197.000000	92.104515 
3196.000000	92.159957 
3195.000000	92.220420 
3194.000000	92.284587 
3193.000000	92.350122 
3192.000000	92.414809 
3191.000000	92.477286 
3190.000000	92.537272 
3189.000000	92.595386 
3188.000000	92.652355 
3187.000000	92.708289 
3186.000000	92.763297 
3185.000000	92.818627 
3184.000000	92.876215 
3183.000000	92.937032 
3182.000000	93.001133 
3181.000000	93.069432 
3180.000000	93.143603 
3179.000000	93.223004 
3178.000000	93.302958 
3177.000000	93.377751 
3176.000000	93.445209 
3175.000000	93.507679 
3174.000000	93.569296 
3173.000000	93.633244 
3172.000000	93.700879 
3171.000000	93.771883 
3170.000000	93.844687 
3169.000000	93.917180 
3168.000000	93.987494 
3167.000000	94.054696 
3166.000000	94.119345 
3165.000000	94.183236 
3164.000000	94.247751 
3163.000000	94.312300 
3162.000000	94.375082 
3161.000000	94.435397 
3160.000000	94.494258 
3159.000000	94.552709 
3158.000000	94.610799 
3157.000000	94.668496 
3156.000000	94.726105 
3155.000000	94.782925 
3154.000000	94.836726 
3153.000000	94.885782 
3152.000000	94.930812 
3151.000000	94.973983 
3150.000000	95.016709 
3149.000000	95.059369 
3148.000000	95.102422 
3147.000000	95.146182 
3146.000000	95.189341 
3145.000000	95.229027 
3144.000000	95.263371 
3143.000000	95.293920 
3142.000000	95.324697 
3141.000000	95.358212 
3140.000000	95.392558 
3139.000000	95.423281 
3138.000000	95.448345 
3137.000000	95.470095 
3136.000000	95.491576 
3135.000000	95.512397 
3134.000000	95.530100 
3133.000000	95.544713 
3132.000000	95.559211 
3131.000000	95.575038 
3130.000000	95.589693 
3129.000000	95.600163 
3128.000000	95.607170 
3127.000000	95.614420 
3126.000000	95.624389 
3125.000000	95.635998 
3124.000000	95.645840 
3123.000000	95.650625 
3122.000000	95.648943 
3121.000000	95.641866 
3120.000000	95.631992 
3119.000000	95.621343 
3118.000000	95.609890 
3117.000000	95.595954 
3116.000000	95.577804 
3115.000000	95.555089 
3114.000000	95.529408 
3113.000000	95.503594 
3112.000000	95.479742 
3111.000000	95.457537 
3110.000000	95.434615 
3109.000000	95.408356 
3108.000000	95.377050 
3107.000000	95.340015 
3106.000000	95.297690 
3105.000000	95.251632 
3104.000000	95.203445 
3103.000000	95.153364 
3102.000000	95.100290 
3101.000000	95.043182 
3100.000000	94.982183 
3099.000000	94.918865 
3098.000000	94.855778 
3097.000000	94.794822 
3096.000000	94.735088 
3095.000000	94.673257 
3094.000000	94.607466 
3093.000000	94.539924 
3092.000000	94.474260 
3091.000000	94.411062 
3090.000000	94.347782 
3089.000000	94.282389 
3088.000000	94.215086 
3087.000000	94.146822 
3086.000000	94.078387 
3085.000000	94.011243 
3084.000000	93.947233 
3083.000000	93.886907 
3082.000000	93.829510 
3081.000000	93.774679 
3080.000000	93.722530 
3079.000000	93.672165 
3078.000000	93.622253 
3077.000000	93.573772 
3076.000000	93.530451 
3075.000000	93.495735 
3074.000000	93.470471 
3073.000000	93.453921 
3072.000000	93.445746 
3071.000000	93.446555 
3070.000000	93.457504 
3069.000000	93.479197 
3068.000000	93.509593 
3067.000000	93.543219 
3066.000000	93.574740 
3065.000000	93.604245 
3064.000000	93.637784 
3063.000000	93.682029 
3062.000000	93.739343 
3061.000000	93.807728 
3060.000000	93.883447 
3059.000000	93.962817 
3058.000000	94.043028 
3057.000000	94.122806 
3056.000000	94.202352 
3055.000000	94.282463 
3054.000000	94.363991 
3053.000000	94.447651 
3052.000000	94.533306 
3051.000000	94.619704 
3050.000000	94.705930 
3049.000000	94.792701 
3048.000000	94.880945 
3047.000000	94.969521 
3046.000000	95.056004 
3045.000000	95.139451 
3044.000000	95.220565 
3043.000000	95.298919 
3042.000000	95.371904 
3041.000000	95.437195 
3040.000000	95.495359 
3039.000000	95.549696 
3038.000000	95.604187 
3037.000000	95.660958 
3036.000000	95.718205 
3035.000000	95.771001 
3034.000000	95.816074 
3033.000000	95.855883 
3032.000000	95.896109 
3031.000000	95.938940 
3030.000000	95.980630 
3029.000000	96.016010 
3028.000000	96.043448 
3027.000000	96.065075 
3026.000000	96.084303 
3025.000000	96.103949 
3024.000000	96.124968 
3023.000000	96.145488 
3022.000000	96.161822 
3021.000000	96.171184 
3020.000000	96.173249 
3019.000000	96.169410 
3018.000000	96.161588 
3017.000000	96.151377 
3016.000000	96.138684 
3015.000000	96.121072 
3014.000000	96.095583 
3013.000000	96.060800 
3012.000000	96.015796 
3011.000000	95.958166 
3010.000000	95.885821 
3009.000000	95.800536 
3008.000000	95.706733 
3007.000000	95.605911 
3006.000000	95.494272 
3005.000000	95.366526 
3004.000000	95.220001 
3003.000000	95.054219 
3002.000000	94.868459 
3001.000000	94.660905 
3000.000000	94.428869 
2999.000000	94.169304 
2998.000000	93.880642 
2997.000000	93.564378 
2996.000000	93.222688 
2995.000000	92.853524 
2994.000000	92.449886 
2993.000000	92.005216 
2992.000000	91.518554 
2991.000000	90.994046 
2990.000000	90.437032 
2989.000000	89.851088 
2988.000000	89.237231 
2987.000000	88.595145 
2986.000000	87.926138 
2985.000000	87.234968 
2984.000000	86.527917 
2983.000000	85.810078 
2982.000000	85.086867 
2981.000000	84.367552 
2980.000000	83.664237 
2979.000000	82.987139 
2978.000000	82.343702 
2977.000000	81.743166 
2976.000000	81.199975 
2975.000000	80.732348 
2974.000000	80.359969 
2973.000000	80.103384 
2972.000000	79.981745 
2971.000000	80.007889 
2970.000000	80.184539 
2969.000000	80.503955 
2968.000000	80.948970 
2967.000000	81.494519 
2966.000000	82.111442 
2965.000000	82.771545 
2964.000000	83.450270 
2963.000000	84.125907 
2962.000000	84.779420 
2961.000000	85.396673 
2960.000000	85.969495 
2959.000000	86.493530 
2958.000000	86.965232 
2957.000000	87.380758 
2956.000000	87.735936 
2955.000000	88.026337 
2954.000000	88.248726 
2953.000000	88.403484 
2952.000000	88.494995 
2951.000000	88.529249 
2950.000000	88.511723 
2949.000000	88.447138 
2948.000000	88.339577 
2947.000000	88.192628 
2946.000000	88.011189 
2945.000000	87.803752 
2944.000000	87.581408 
2943.000000	87.354294 
2942.000000	87.130075 
2941.000000	86.915404 
2940.000000	86.716432 
2939.000000	86.537181 
2938.000000	86.379558 
2937.000000	86.245953 
2936.000000	86.140603 
2935.000000	86.068067 
2934.000000	86.031678 
2933.000000	86.033415 
2932.000000	86.073255 
2931.000000	86.148347 
2930.000000	86.254672 
2929.000000	86.389795 
2928.000000	86.552106 
2927.000000	86.737055 
2926.000000	86.936525 
2925.000000	87.143181 
2924.000000	87.353925 
2923.000000	87.568447 
2922.000000	87.786234 
2921.000000	88.006202 
2920.000000	88.227816 
2919.000000	88.451045 
2918.000000	88.675641 
2917.000000	88.900871 
2916.000000	89.125067 
2915.000000	89.345106 
2914.000000	89.557533 
2913.000000	89.760765 
2912.000000	89.955421 
2911.000000	90.142199 
2910.000000	90.320567 
2909.000000	90.490141 
2908.000000	90.652473 
2907.000000	90.810765 
2906.000000	90.967939 
2905.000000	91.124691 
2904.000000	91.278712 
2903.000000	91.426089 
2902.000000	91.564417 
2901.000000	91.694445 
2900.000000	91.817754 
2899.000000	91.934140 
2898.000000	92.042431 
2897.000000	92.142794 
2896.000000	92.235769 
2895.000000	92.319357 
2894.000000	92.389628 
2893.000000	92.444502 
2892.000000	92.484519 
2891.000000	92.509464 
2890.000000	92.516546 
2889.000000	92.502757 
2888.000000	92.466917 
2887.000000	92.408492 
2886.000000	92.326334 
2885.000000	92.219935 
2884.000000	92.090815 
2883.000000	91.942283 
2882.000000	91.779534 
2881.000000	91.610604 
2880.000000	91.445915 
2879.000000	91.296234 
2878.000000	91.172324 
2877.000000	91.085570 
2876.000000	91.045718 
2875.000000	91.056504 
2874.000000	91.115281 
2873.000000	91.217810 
2872.000000	91.361509 
2871.000000	91.543292 
2870.000000	91.756521 
2869.000000	91.991823 
2868.000000	92.239667 
2867.000000	92.490765 
2866.000000	92.735949 
2865.000000	92.968330 
2864.000000	93.186016 
2863.000000	93.391425 
2862.000000	93.587647 
2861.000000	93.775849 
2860.000000	93.955514 
2859.000000	94.126297 
2858.000000	94.289301 
2857.000000	94.446279 
2856.000000	94.597315 
2855.000000	94.740278 
2854.000000	94.873863 
2853.000000	95.000471 
2852.000000	95.124163 
2851.000000	95.245992 
2850.000000	95.363499 
2849.000000	95.474730 
2848.000000	95.580270 
2847.000000	95.680826 
2846.000000	95.775438 
2845.000000	95.863229 
2844.000000	95.944697 
2843.000000	96.020077 
2842.000000	96.088608 
2841.000000	96.150953 
2840.000000	96.210301 
2839.000000	96.268968 
2838.000000	96.325237 
2837.000000	96.375513 
2836.000000	96.418734 
2835.000000	96.457004 
2834.000000	96.492536 
2833.000000	96.525541 
2832.000000	96.554881 
2831.000000	96.579769 
2830.000000	96.601037 
2829.000000	96.621129 
2828.000000	96.642124 
2827.000000	96.663354 
2826.000000	96.681998 
2825.000000	96.696573 
2824.000000	96.708662 
2823.000000	96.720542 
2822.000000	96.732205 
2821.000000	96.741577 
2820.000000	96.746908 
2819.000000	96.748477 
2818.000000	96.748958 
2817.000000	96.752389 
2816.000000	96.761439 
2815.000000	96.774952 
2814.000000	96.789310 
2813.000000	96.802725 
2812.000000	96.817086 
2811.000000	96.835129 
2810.000000	96.857100 
2809.000000	96.880756 
2808.000000	96.903384 
2807.000000	96.923352 
2806.000000	96.941142 
2805.000000	96.959565 
2804.000000	96.981633 
2803.000000	97.007424 
2802.000000	97.034013 
2801.000000	97.058795 
2800.000000	97.081455 
2799.000000	97.102439 
2798.000000	97.121437 
2797.000000	97.138474 
2796.000000	97.155044 
2795.000000	97.172907 
2794.000000	97.192439 
2793.000000	97.212604 
2792.000000	97.231649 
2791.000000	97.247857 
2790.000000	97.261151 
2789.000000	97.274013 
2788.000000	97.288954 
2787.000000	97.304786 
2786.000000	97.317667 
2785.000000	97.326539 
2784.000000	97.335231 
2783.000000	97.347961 
2782.000000	97.364775 
2781.000000	97.382774 
2780.000000	97.399825 
2779.000000	97.415326 
2778.000000	97.428912 
2777.000000	97.440411 
2776.000000	97.450350 
2775.000000	97.459155 
2774.000000	97.466726 
2773.000000	97.473717 
2772.000000	97.481836 
2771.000000	97.491469 
2770.000000	97.500279 
2769.000000	97.505888 
2768.000000	97.509285 
2767.000000	97.514023 
2766.000000	97.522407 
2765.000000	97.533576 
2764.000000	97.545133 
2763.000000	97.555699 
2762.000000	97.566017 
2761.000000	97.577973 
2760.000000	97.592415 
2759.000000	97.608028 
2758.000000	97.622962 
2757.000000	97.637193 
2756.000000	97.652005 
2755.000000	97.667266 
2754.000000	97.680870 
2753.000000	97.691131 
2752.000000	97.698102 
2751.000000	97.702141 
2750.000000	97.703070 
2749.000000	97.701678 
2748.000000	97.700350 
2747.000000	97.700805 
2746.000000	97.702130 
2745.000000	97.701993 
2744.000000	97.699083 
2743.000000	97.693741 
2742.000000	97.687094 
2741.000000	97.680205 
2740.000000	97.673487 
2739.000000	97.666793 
2738.000000	97.660682 
2737.000000	97.657019 
2736.000000	97.656836 
2735.000000	97.658090 
2734.000000	97.657563 
2733.000000	97.655009 
2732.000000	97.653351 
2731.000000	97.654637 
2730.000000	97.658227 
2729.000000	97.663287 
2728.000000	97.670261 
2727.000000	97.678550 
2726.000000	97.685119 
2725.000000	97.687166 
2724.000000	97.684762 
2723.000000	97.679710 
2722.000000	97.673692 
2721.000000	97.668900 
2720.000000	97.668603 
2719.000000	97.674906 
2718.000000	97.686615 
2717.000000	97.700540 
2716.000000	97.714144 
2715.000000	97.726252 
2714.000000	97.736594 
2713.000000	97.746044 
2712.000000	97.756313 
2711.000000	97.768169 
2710.000000	97.780501 
2709.000000	97.791860 
2708.000000	97.801990 
2707.000000	97.811199 
2706.000000	97.819196 
2705.000000	97.825400 
2704.000000	97.829665 
2703.000000	97.832337 
2702.000000	97.834545 
2701.000000	97.838508 
2700.000000	97.846025 
2699.000000	97.856088 
2698.000000	97.865441 
2697.000000	97.872083 
2696.000000	97.876864 
2695.000000	97.881190 
2694.000000	97.884914 
2693.000000	97.887485 
2692.000000	97.889579 
2691.000000	97.892278 
2690.000000	97.895651 
2689.000000	97.899240 
2688.000000	97.903326 
2687.000000	97.908956 
2686.000000	97.917199 
2685.000000	97.928368 
2684.000000	97.940984 
2683.000000	97.951722 
2682.000000	97.958063 
2681.000000	97.961377 
2680.000000	97.965887 
2679.000000	97.974105 
2678.000000	97.984673 
2677.000000	97.994799 
2676.000000	98.003027 
2675.000000	98.009111 
2674.000000	98.013135 
2673.000000	98.015826 
2672.000000	98.018313 
2671.000000	98.020679 
2670.000000	98.021740 
2669.000000	98.020665 
2668.000000	98.017526 
2667.000000	98.012184 
2666.000000	98.004497 
2665.000000	97.996166 
2664.000000	97.990346 
2663.000000	97.988316 
2662.000000	97.987892 
2661.000000	97.986033 
2660.000000	97.981864 
2659.000000	97.976669 
2658.000000	97.972440 
2657.000000	97.971146 
2656.000000	97.973911 
2655.000000	97.979916 
2654.000000	97.987036 
2653.000000	97.993979 
2652.000000	98.000633 
2651.000000	98.006326 
2650.000000	98.009599 
2649.000000	98.010257 
2648.000000	98.009900 
2647.000000	98.009787 
2646.000000	98.009724 
2645.000000	98.009552 
2644.000000	98.010046 
2643.000000	98.011785 
2642.000000	98.014746 
2641.000000	98.019338 
2640.000000	98.026038 
2639.000000	98.033527 
2638.000000	98.038970 
2637.000000	98.040515 
2636.000000	98.038021 
2635.000000	98.031743 
2634.000000	98.022812 
2633.000000	98.014920 
2632.000000	98.012294 
2631.000000	98.015033 
2630.000000	98.018916 
2629.000000	98.020503 
2628.000000	98.020100 
2627.000000	98.019297 
2626.000000	98.018589 
2625.000000	98.018266 
2624.000000	98.018769 
2623.000000	98.019062 
2622.000000	98.017240 
2621.000000	98.013707 
2620.000000	98.011233 
2619.000000	98.011312 
2618.000000	98.013350 
2617.000000	98.017838 
2616.000000	98.026456 
2615.000000	98.037546 
2614.000000	98.045127 
2613.000000	98.044750 
2612.000000	98.038238 
2611.000000	98.031357 
2610.000000	98.029098 
2609.000000	98.033758 
2608.000000	98.044210 
2607.000000	98.055656 
2606.000000	98.063068 
2605.000000	98.066213 
2604.000000	98.068769 
2603.000000	98.072348 
2602.000000	98.075231 
2601.000000	98.077423 
2600.000000	98.081946 
2599.000000	98.089324 
2598.000000	98.095762 
2597.000000	98.099549 
2596.000000	98.104638 
2595.000000	98.114234 
2594.000000	98.124546 
2593.000000	98.129027 
2592.000000	98.126373 
2591.000000	98.120827 
2590.000000	98.116676 
2589.000000	98.115716 
2588.000000	98.118319 
2587.000000	98.123661 
2586.000000	98.129503 
2585.000000	98.133746 
2584.000000	98.135632 
2583.000000	98.134893 
2582.000000	98.131537 
2581.000000	98.127079 
2580.000000	98.123642 
2579.000000	98.121166 
2578.000000	98.118027 
2577.000000	98.114720 
2576.000000	98.113578 
2575.000000	98.114318 
2574.000000	98.113894 
2573.000000	98.112099 
2572.000000	98.113195 
2571.000000	98.119897 
2570.000000	98.129349 
2569.000000	98.137229 
2568.000000	98.142596 
2567.000000	98.146472 
2566.000000	98.148774 
2565.000000	98.149012 
2564.000000	98.147485 
2563.000000	98.143977 
2562.000000	98.137944 
2561.000000	98.131493 
2560.000000	98.129088 
2559.000000	98.132383 
2558.000000	98.137938 
2557.000000	98.141493 
2556.000000	98.141910 
2555.000000	98.139992 
2554.000000	98.136821 
2553.000000	98.134708 
2552.000000	98.136465 
2551.000000	98.141976 
2550.000000	98.148189 
2549.000000	98.153489 
2548.000000	98.158973 
2547.000000	98.164598 
2546.000000	98.167725 
2545.000000	98.166828 
2544.000000	98.163421 
2543.000000	98.159443 
2542.000000	98.156182 
2541.000000	98.156024 
2540.000000	98.160645 
2539.000000	98.166520 
2538.000000	98.167229 
2537.000000	98.162154 
2536.000000	98.158360 
2535.000000	98.161595 
2534.000000	98.169508 
2533.000000	98.175860 
2532.000000	98.177454 
2531.000000	98.174751 
2530.000000	98.169538 
2529.000000	98.164561 
2528.000000	98.162350 
2527.000000	98.162399 
2526.000000	98.162199 
2525.000000	98.161755 
2524.000000	98.163352 
2523.000000	98.166092 
2522.000000	98.165264 
2521.000000	98.158869 
2520.000000	98.150727 
2519.000000	98.145614 
2518.000000	98.145167 
2517.000000	98.149298 
2516.000000	98.156727 
2515.000000	98.162872 
2514.000000	98.162544 
2513.000000	98.156787 
2512.000000	98.152113 
2511.000000	98.151092 
2510.000000	98.149195 
2509.000000	98.143491 
2508.000000	98.138642 
2507.000000	98.140207 
2506.000000	98.146518 
2505.000000	98.151361 
2504.000000	98.151455 
2503.000000	98.147821 
2502.000000	98.142870 
2501.000000	98.139551 
2500.000000	98.140771 
2499.000000	98.146503 
2498.000000	98.153021 
2497.000000	98.156715 
2496.000000	98.156673 
2495.000000	98.153097 
2494.000000	98.146507 
2493.000000	98.139509 
2492.000000	98.135677 
2491.000000	98.135430 
2490.000000	98.136366 
2489.000000	98.138293 
2488.000000	98.143818 
2487.000000	98.153064 
2486.000000	98.162164 
2485.000000	98.168183 
2484.000000	98.171377 
2483.000000	98.171906 
2482.000000	98.169292 
2481.000000	98.166196 
2480.000000	98.167293 
2479.000000	98.172447 
2478.000000	98.175896 
2477.000000	98.174023 
2476.000000	98.169296 
2475.000000	98.165162 
2474.000000	98.162509 
2473.000000	98.162767 
2472.000000	98.168399 
2471.000000	98.177439 
2470.000000	98.183089 
2469.000000	98.182105 
2468.000000	98.179007 
2467.000000	98.179130 
2466.000000	98.182329 
2465.000000	98.186382 
2464.000000	98.191514 
2463.000000	98.197834 
2462.000000	98.202475 
2461.000000	98.202916 
2460.000000	98.199835 
2459.000000	98.194165 
2458.000000	98.185265 
2457.000000	98.174480 
2456.000000	98.166243 
2455.000000	98.162827 
2454.000000	98.161927 
2453.000000	98.161926 
2452.000000	98.165265 
2451.000000	98.173925 
2450.000000	98.185787 
2449.000000	98.198084 
2448.000000	98.210128 
2447.000000	98.220051 
2446.000000	98.223736 
2445.000000	98.220438 
2444.000000	98.215363 
2443.000000	98.213445 
2442.000000	98.214420 
2441.000000	98.216663 
2440.000000	98.221222 
2439.000000	98.228576 
2438.000000	98.235481 
2437.000000	98.238790 
2436.000000	98.239197 
2435.000000	98.238473 
2434.000000	98.236584 
2433.000000	98.234046 
2432.000000	98.233175 
2431.000000	98.234272 
2430.000000	98.234620 
2429.000000	98.233942 
2428.000000	98.236545 
2427.000000	98.244915 
2426.000000	98.255283 
2425.000000	98.262850 
2424.000000	98.267578 
2423.000000	98.271293 
2422.000000	98.272746 
2421.000000	98.269589 
2420.000000	98.262930 
2419.000000	98.256758 
2418.000000	98.254520 
2417.000000	98.257698 
2416.000000	98.264847 
2415.000000	98.270599 
2414.000000	98.269089 
2413.000000	98.260275 
2412.000000	98.249787 
2411.000000	98.241655 
2410.000000	98.235379 
2409.000000	98.231370 
2408.000000	98.233624 
2407.000000	98.243605 
2406.000000	98.255599 
2405.000000	98.261844 
2404.000000	98.259901 
2403.000000	98.253131 
2402.000000	98.247016 
2401.000000	98.246507 
2400.000000	98.253031 
2399.000000	98.261930 
2398.000000	98.266173 
2397.000000	98.264177 
2396.000000	98.260583 
2395.000000	98.258600 
2394.000000	98.256453 
2393.000000	98.252887 
2392.000000	98.250321 
2391.000000	98.249146 
2390.000000	98.243690 
2389.000000	98.228126 
2388.000000	98.203486 
2387.000000	98.175524 
2386.000000	98.148713 
2385.000000	98.125923 
2384.000000	98.111917 
2383.000000	98.113566 
2382.000000	98.136838 
2381.000000	98.183973 
2380.000000	98.250285 
2379.000000	98.321772 
2378.000000	98.380009 
2377.000000	98.413125 
2376.000000	98.419476 
2375.000000	98.400331 
2374.000000	98.357512 
2373.000000	98.302888 
2372.000000	98.259648 
2371.000000	98.242356 
2370.000000	98.241016 
2369.000000	98.235420 
2368.000000	98.220515 
2367.000000	98.208029 
2366.000000	98.209158 
2365.000000	98.224863 
2364.000000	98.245494 
2363.000000	98.253190 
2362.000000	98.235638 
2361.000000	98.203069 
2360.000000	98.178420 
2359.000000	98.171544 
2358.000000	98.180420 
2357.000000	98.205973 
2356.000000	98.244958 
2355.000000	98.276873 
2354.000000	98.288429 
2353.000000	98.286043 
2352.000000	98.275680 
2351.000000	98.249995 
2350.000000	98.204635 
2349.000000	98.152226 
2348.000000	98.109964 
2347.000000	98.083353 
2346.000000	98.062804 
2345.000000	98.041645 
2344.000000	98.027436 
2343.000000	98.023917 
2342.000000	98.029765 
2341.000000	98.042327 
2340.000000	98.059021 
2339.000000	98.074785 
2338.000000	98.087864 
2337.000000	98.105266 
2336.000000	98.129073 
2335.000000	98.148523 
2334.000000	98.149979 
2333.000000	98.136368 
2332.000000	98.120027 
2331.000000	98.109151 
2330.000000	98.094002 
2329.000000	98.063063 
2328.000000	98.008257 
2327.000000	97.933311 
2326.000000	97.851516 
2325.000000	97.787303 
2324.000000	97.762891 
2323.000000	97.780365 
2322.000000	97.819848 
2321.000000	97.858935 
2320.000000	97.886527 
2319.000000	97.901502 
2318.000000	97.905115 
2317.000000	97.905745 
2316.000000	97.909980 
2315.000000	97.916439 
2314.000000	97.914188 
2313.000000	97.901651 
2312.000000	97.886492 
2311.000000	97.876762 
2310.000000	97.870798 
2309.000000	97.868315 
2308.000000	97.873231 
2307.000000	97.888508 
2306.000000	97.907829 
2305.000000	97.921571 
2304.000000	97.921771 
2303.000000	97.905965 
2302.000000	97.878420 
2301.000000	97.852724 
2300.000000	97.839775 
2299.000000	97.836779 
2298.000000	97.830930 
2297.000000	97.819824 
2296.000000	97.812374 
2295.000000	97.813111 
2294.000000	97.813859 
2293.000000	97.809938 
2292.000000	97.809708 
2291.000000	97.821728 
2290.000000	97.839796 
2289.000000	97.850876 
2288.000000	97.852486 
2287.000000	97.853659 
2286.000000	97.862935 
2285.000000	97.881522 
2284.000000	97.906216 
2283.000000	97.931880 
2282.000000	97.953383 
2281.000000	97.967890 
2280.000000	97.974577 
2279.000000	97.971774 
2278.000000	97.960501 
2277.000000	97.950447 
2276.000000	97.953408 
2275.000000	97.969022 
2274.000000	97.985483 
2273.000000	97.996025 
2272.000000	98.003894 
2271.000000	98.010105 
2270.000000	98.009324 
2269.000000	98.002657 
2268.000000	98.000856 
2267.000000	98.008337 
2266.000000	98.015821 
2265.000000	98.015913 
2264.000000	98.014102 
2263.000000	98.016683 
2262.000000	98.019195 
2261.000000	98.015051 
2260.000000	98.006481 
2259.000000	97.999673 
2258.000000	97.998511 
2257.000000	98.007567 
2256.000000	98.029809 
2255.000000	98.055149 
2254.000000	98.064153 
2253.000000	98.051507 
2252.000000	98.034122 
2251.000000	98.029094 
2250.000000	98.035655 
2249.000000	98.045739 
2248.000000	98.057245 
2247.000000	98.066853 
2246.000000	98.063096 
2245.000000	98.040476 
2244.000000	98.011453 
2243.000000	97.992368 
2242.000000	97.984673 
2241.000000	97.979357 
2240.000000	97.972373 
2239.000000	97.967004 
2238.000000	97.967706 
2237.000000	97.978378 
2236.000000	97.999300 
2235.000000	98.020606 
2234.000000	98.027617 
2233.000000	98.017417 
2232.000000	98.000853 
2231.000000	97.985515 
2230.000000	97.969464 
2229.000000	97.954175 
2228.000000	97.947413 
2227.000000	97.948427 
2226.000000	97.947449 
2225.000000	97.945544 
2224.000000	97.955826 
2223.000000	97.976873 
2222.000000	97.985747 
2221.000000	97.970131 
2220.000000	97.948275 
2219.000000	97.941911 
2218.000000	97.946462 
2217.000000	97.944356 
2216.000000	97.933196 
2215.000000	97.923391 
2214.000000	97.919064 
2213.000000	97.917296 
2212.000000	97.917588 
2211.000000	97.919213 
2210.000000	97.917321 
2209.000000	97.911311 
2208.000000	97.907307 
2207.000000	97.904733 
2206.000000	97.893492 
2205.000000	97.872765 
2204.000000	97.857775 
2203.000000	97.857905 
2202.000000	97.863161 
2201.000000	97.862489 
2200.000000	97.859959 
2199.000000	97.861254 
2198.000000	97.859538 
2197.000000	97.847903 
2196.000000	97.832502 
2195.000000	97.821320 
2194.000000	97.812919 
2193.000000	97.806498 
2192.000000	97.808130 
2191.000000	97.816005 
2190.000000	97.814659 
2189.000000	97.795824 
2188.000000	97.771705 
2187.000000	97.758033 
2186.000000	97.759421 
2185.000000	97.779032 
2184.000000	97.821993 
2183.000000	97.876647 
2182.000000	97.912456 
2181.000000	97.912214 
2180.000000	97.890462 
2179.000000	97.869208 
2178.000000	97.856069 
2177.000000	97.855464 
2176.000000	97.875038 
2175.000000	97.904717 
2174.000000	97.912233 
2173.000000	97.878669 
2172.000000	97.821716 
2171.000000	97.769592 
2170.000000	97.730243 
2169.000000	97.698030 
2168.000000	97.669776 
2167.000000	97.638896 
2166.000000	97.592626 
2165.000000	97.532018 
2164.000000	97.479583 
2163.000000	97.457090 
2162.000000	97.478459 
2161.000000	97.571219 
2160.000000	97.763718 
2159.000000	98.022583 
2158.000000	98.245346 
2157.000000	98.356208 
2156.000000	98.371100 
2155.000000	98.344075 
2154.000000	98.298469 
2153.000000	98.234646 
2152.000000	98.167149 
2151.000000	98.120336 
2150.000000	98.100161 
2149.000000	98.092480 
2148.000000	98.083477 
2147.000000	98.069828 
2146.000000	98.056303 
2145.000000	98.051719 
2144.000000	98.058706 
2143.000000	98.063925 
2142.000000	98.050127 
2141.000000	98.019621 
2140.000000	97.991743 
2139.000000	97.977415 
2138.000000	97.974905 
2137.000000	97.990206 
2136.000000	98.036666 
2135.000000	98.107100 
2134.000000	98.168402 
2133.000000	98.194101 
2132.000000	98.185360 
2131.000000	98.154485 
2130.000000	98.108582 
2129.000000	98.057320 
2128.000000	98.017038 
2127.000000	97.995475 
2126.000000	97.985004 
2125.000000	97.977876 
2124.000000	97.975324 
2123.000000	97.976308 
2122.000000	97.972580 
2121.000000	97.962286 
2120.000000	97.953677 
2119.000000	97.947423 
2118.000000	97.930509 
2117.000000	97.897360 
2116.000000	97.862803 
2115.000000	97.842844 
2114.000000	97.834794 
2113.000000	97.827392 
2112.000000	97.819407 
2111.000000	97.816610 
2110.000000	97.819394 
2109.000000	97.823874 
2108.000000	97.827675 
2107.000000	97.827175 
2106.000000	97.818305 
2105.000000	97.806656 
2104.000000	97.805802 
2103.000000	97.818862 
2102.000000	97.833515 
2101.000000	97.841746 
2100.000000	97.851206 
2099.000000	97.869537 
2098.000000	97.892001 
2097.000000	97.913828 
2096.000000	97.939947 
2095.000000	97.970617 
2094.000000	97.991191 
2093.000000	97.989549 
2092.000000	97.973266 
2091.000000	97.958486 
2090.000000	97.951095 
2089.000000	97.947210 
2088.000000	97.942825 
2087.000000	97.934940 
2086.000000	97.921905 
2085.000000	97.909515 
2084.000000	97.908010 
2083.000000	97.918241 
2082.000000	97.930812 
2081.000000	97.941377 
2080.000000	97.953303 
2079.000000	97.962657 
2078.000000	97.958968 
2077.000000	97.947272 
2076.000000	97.949439 
2075.000000	97.972712 
2074.000000	97.995495 
2073.000000	97.996475 
2072.000000	97.980966 
2071.000000	97.966261 
2070.000000	97.958382 
2069.000000	97.956787 
2068.000000	97.965011 
2067.000000	97.981741 
2066.000000	97.995330 
2065.000000	98.000331 
2064.000000	98.006300 
2063.000000	98.019250 
2062.000000	98.030147 
2061.000000	98.031743 
2060.000000	98.029680 
2059.000000	98.027384 
2058.000000	98.019338 
2057.000000	98.009399 
2056.000000	98.012635 
2055.000000	98.024532 
2054.000000	98.012197 
2053.000000	97.956774 
2052.000000	97.886098 
2051.000000	97.846647 
2050.000000	97.858190 
2049.000000	97.907796 
2048.000000	97.970804 
2047.000000	98.020523 
2046.000000	98.033933 
2045.000000	98.011770 
2044.000000	97.982575 
2043.000000	97.970522 
2042.000000	97.973600 
2041.000000	97.982880 
2040.000000	97.998981 
2039.000000	98.015516 
2038.000000	98.014478 
2037.000000	97.998594 
2036.000000	98.002426 
2035.000000	98.047860 
2034.000000	98.112179 
2033.000000	98.161346 
2032.000000	98.189312 
2031.000000	98.203834 
2030.000000	98.204346 
2029.000000	98.196535 
2028.000000	98.197532 
2027.000000	98.205410 
2026.000000	98.195263 
2025.000000	98.165631 
2024.000000	98.152997 
2023.000000	98.177079 
2022.000000	98.207395 
2021.000000	98.209562 
2020.000000	98.192099 
2019.000000	98.180709 
2018.000000	98.179099 
2017.000000	98.183092 
2016.000000	98.201788 
2015.000000	98.234141 
2014.000000	98.252018 
2013.000000	98.234933 
2012.000000	98.199942 
2011.000000	98.175449 
2010.000000	98.169910 
2009.000000	98.184774 
2008.000000	98.226923 
2007.000000	98.284303 
2006.000000	98.319324 
2005.000000	98.312806 
2004.000000	98.287582 
2003.000000	98.269282 
2002.000000	98.254061 
2001.000000	98.232153 
2000.000000	98.212726 
1999.000000	98.202824 
1998.000000	98.188973 
1997.000000	98.161914 
1996.000000	98.137279 
1995.000000	98.131626 
1994.000000	98.139945 
1993.000000	98.153146 
1992.000000	98.173631 
1991.000000	98.195052 
1990.000000	98.193804 
1989.000000	98.161721 
1988.000000	98.121122 
1987.000000	98.090222 
1986.000000	98.061105 
1985.000000	98.028525 
1984.000000	98.007945 
1983.000000	98.002822 
1982.000000	97.988018 
1981.000000	97.954426 
1980.000000	97.940680 
1979.000000	97.985119 
1978.000000	98.070274 
1977.000000	98.151132 
1976.000000	98.214162 
1975.000000	98.266323 
1974.000000	98.296932 
1973.000000	98.295365 
1972.000000	98.280590 
1971.000000	98.275260 
1970.000000	98.273124 
1969.000000	98.262112 
1968.000000	98.256156 
1967.000000	98.273799 
1966.000000	98.305601 
1965.000000	98.332084 
1964.000000	98.353530 
1963.000000	98.376872 
1962.000000	98.395473 
1961.000000	98.404598 
1960.000000	98.415142 
1959.000000	98.430565 
1958.000000	98.432737 
1957.000000	98.410377 
1956.000000	98.379771 
1955.000000	98.359977 
1954.000000	98.349095 
1953.000000	98.340209 
1952.000000	98.337618 
1951.000000	98.341618 
1950.000000	98.339087 
1949.000000	98.326862 
1948.000000	98.323101 
1947.000000	98.337857 
1946.000000	98.353790 
1945.000000	98.353167 
1944.000000	98.343812 
1943.000000	98.341085 
1942.000000	98.343229 
1941.000000	98.343883 
1940.000000	98.349640 
1939.000000	98.364387 
1938.000000	98.374341 
1937.000000	98.367421 
1936.000000	98.353352 
1935.000000	98.348700 
1934.000000	98.356184 
1933.000000	98.371234 
1932.000000	98.391699 
1931.000000	98.409265 
1930.000000	98.408162 
1929.000000	98.387932 
1928.000000	98.371001 
1927.000000	98.372753 
1926.000000	98.381943 
1925.000000	98.380613 
1924.000000	98.368996 
1923.000000	98.356876 
1922.000000	98.345921 
1921.000000	98.335997 
1920.000000	98.334524 
1919.000000	98.343305 
1918.000000	98.349669 
1917.000000	98.345096 
1916.000000	98.338698 
1915.000000	98.337397 
1914.000000	98.332111 
1913.000000	98.316174 
1912.000000	98.301497 
1911.000000	98.302530 
1910.000000	98.316098 
1909.000000	98.330845 
1908.000000	98.343528 
1907.000000	98.351992 
1906.000000	98.347722 
1905.000000	98.328037 
1904.000000	98.306190 
1903.000000	98.295418 
1902.000000	98.294088 
1901.000000	98.296797 
1900.000000	98.305832 
1899.000000	98.320178 
1898.000000	98.328722 
1897.000000	98.325526 
1896.000000	98.320440 
1895.000000	98.322413 
1894.000000	98.325841 
1893.000000	98.325785 
1892.000000	98.330521 
1891.000000	98.345107 
1890.000000	98.357501 
1889.000000	98.355885 
1888.000000	98.347294 
1887.000000	98.343933 
1886.000000	98.344950 
1885.000000	98.343958 
1884.000000	98.342219 
1883.000000	98.342332 
1882.000000	98.339314 
1881.000000	98.330800 
1880.000000	98.325011 
1879.000000	98.327408 
1878.000000	98.331543 
1877.000000	98.331758 
1876.000000	98.332609 
1875.000000	98.337517 
1874.000000	98.341537 
1873.000000	98.344564 
1872.000000	98.356677 
1871.000000	98.378991 
1870.000000	98.392903 
1869.000000	98.384146 
1868.000000	98.365549 
1867.000000	98.353979 
1866.000000	98.346626 
1865.000000	98.336563 
1864.000000	98.327996 
1863.000000	98.325091 
1862.000000	98.321803 
1861.000000	98.314551 
1860.000000	98.311754 
1859.000000	98.318162 
1858.000000	98.323787 
1857.000000	98.321076 
1856.000000	98.318529 
1855.000000	98.323559 
1854.000000	98.326582 
1853.000000	98.317509 
1852.000000	98.305918 
1851.000000	98.305767 
1850.000000	98.315380 
1849.000000	98.324903 
1848.000000	98.333254 
1847.000000	98.342936 
1846.000000	98.348667 
1845.000000	98.345912 
1844.000000	98.342039 
1843.000000	98.342833 
1842.000000	98.339367 
1841.000000	98.325036 
1840.000000	98.308905 
1839.000000	98.302175 
1838.000000	98.301925 
1837.000000	98.298504 
1836.000000	98.292868 
1835.000000	98.291453 
1834.000000	98.293214 
1833.000000	98.294971 
1832.000000	98.299910 
1831.000000	98.308817 
1830.000000	98.315193 
1829.000000	98.316559 
1828.000000	98.319281 
1827.000000	98.325307 
1826.000000	98.324185 
1825.000000	98.308832 
1824.000000	98.289874 
1823.000000	98.279175 
1822.000000	98.274202 
1821.000000	98.270916 
1820.000000	98.275889 
1819.000000	98.294015 
1818.000000	98.315012 
1817.000000	98.324475 
1816.000000	98.321643 
1815.000000	98.312865 
1814.000000	98.298160 
1813.000000	98.277640 
1812.000000	98.259431 
1811.000000	98.249999 
1810.000000	98.242486 
1809.000000	98.228820 
1808.000000	98.215218 
1807.000000	98.211346 
1806.000000	98.215085 
1805.000000	98.219199 
1804.000000	98.222669 
1803.000000	98.224497 
1802.000000	98.216237 
1801.000000	98.196193 
1800.000000	98.176949 
1799.000000	98.167735 
1798.000000	98.161494 
1797.000000	98.151281 
1796.000000	98.143661 
1795.000000	98.145608 
1794.000000	98.149784 
1793.000000	98.145218 
1792.000000	98.134473 
1791.000000	98.124174 
1790.000000	98.107914 
1789.000000	98.083345 
1788.000000	98.064526 
1787.000000	98.062530 
1786.000000	98.066866 
1785.000000	98.060277 
1784.000000	98.045054 
1783.000000	98.034506 
1782.000000	98.027478 
1781.000000	98.015837 
1780.000000	98.001443 
1779.000000	97.992375 
1778.000000	97.987493 
1777.000000	97.981728 
1776.000000	97.977081 
1775.000000	97.975859 
1774.000000	97.971080 
1773.000000	97.954957 
1772.000000	97.936366 
1771.000000	97.927243 
1770.000000	97.917454 
1769.000000	97.892617 
1768.000000	97.857121 
1767.000000	97.823840 
1766.000000	97.794968 
1765.000000	97.768136 
1764.000000	97.747418 
1763.000000	97.735201 
1762.000000	97.720117 
1761.000000	97.693863 
1760.000000	97.667136 
1759.000000	97.651942 
1758.000000	97.638720 
1757.000000	97.612841 
1756.000000	97.579702 
1755.000000	97.552461 
1754.000000	97.528692 
1753.000000	97.499634 
1752.000000	97.470712 
1751.000000	97.453282 
1750.000000	97.442010 
1749.000000	97.422365 
1748.000000	97.398422 
1747.000000	97.382619 
1746.000000	97.372130 
1745.000000	97.357519 
1744.000000	97.341540 
1743.000000	97.333720 
1742.000000	97.328099 
1741.000000	97.308623 
1740.000000	97.276348 
1739.000000	97.251507 
1738.000000	97.241513 
1737.000000	97.235909 
1736.000000	97.231774 
1735.000000	97.234912 
1734.000000	97.234989 
1733.000000	97.221708 
1732.000000	97.209585 
1731.000000	97.208719 
1730.000000	97.204869 
1729.000000	97.184420 
1728.000000	97.154708 
1727.000000	97.129370 
1726.000000	97.107215 
1725.000000	97.079355 
1724.000000	97.048676 
1723.000000	97.029547 
1722.000000	97.024188 
1721.000000	97.019867 
1720.000000	97.006616 
1719.000000	96.982087 
1718.000000	96.944276 
1717.000000	96.900596 
1716.000000	96.872030 
1715.000000	96.864616 
1714.000000	96.855257 
1713.000000	96.823059 
1712.000000	96.780136 
1711.000000	96.750912 
1710.000000	96.736787 
1709.000000	96.722789 
1708.000000	96.705906 
1707.000000	96.691721 
1706.000000	96.674943 
1705.000000	96.647464 
1704.000000	96.619946 
1703.000000	96.603864 
1702.000000	96.582815 
1701.000000	96.510292 
1700.000000	96.373148 
1699.000000	96.230206 
1698.000000	96.093557 
1697.000000	95.909586 
1696.000000	95.662649 
1695.000000	95.407040 
1694.000000	95.172288 
1693.000000	94.920475 
1692.000000	94.603447 
1691.000000	94.203205 
1690.000000	93.719644 
1689.000000	93.172678 
1688.000000	92.609453 
1687.000000	92.045492 
1686.000000	91.392329 
1685.000000	90.495335 
1684.000000	89.415813 
1683.000000	88.456164 
1682.000000	87.666743 
1681.000000	86.883905 
1680.000000	86.044161 
1679.000000	85.217792 
1678.000000	84.430824 
1677.000000	83.572538 
1676.000000	82.529241 
1675.000000	81.375700 
1674.000000	80.296227 
1673.000000	79.321948 
1672.000000	78.338905 
1671.000000	77.234246 
1670.000000	75.964489 
1669.000000	74.603912 
1668.000000	73.317552 
1667.000000	72.210483 
1666.000000	71.230532 
1665.000000	70.228178 
1664.000000	69.094873 
1663.000000	67.866545 
1662.000000	66.670900 
1661.000000	65.567521 
1660.000000	64.534548 
1659.000000	63.563286 
1658.000000	62.671448 
1657.000000	61.862495 
1656.000000	61.101617 
1655.000000	60.277191 
1654.000000	59.167779 
1653.000000	57.769816 
1652.000000	56.590995 
1651.000000	55.884899 
1650.000000	55.432472 
1649.000000	54.945701 
1648.000000	54.271843 
1647.000000	53.474921 
1646.000000	52.749447 
1645.000000	52.180142 
1644.000000	51.742252 
1643.000000	51.411437 
1642.000000	51.160054 
1641.000000	50.955573 
1640.000000	50.802480 
1639.000000	50.739573 
1638.000000	50.775330 
1637.000000	50.865462 
1636.000000	50.981455 
1635.000000	51.161372 
1634.000000	51.427628 
1633.000000	51.747290 
1632.000000	52.097960 
1631.000000	52.488826 
1630.000000	52.925282 
1629.000000	53.384684 
1628.000000	53.845583 
1627.000000	54.321786 
1626.000000	54.846157 
1625.000000	55.447126 
1624.000000	56.148825 
1623.000000	56.958821 
1622.000000	57.842171 
1621.000000	58.751961 
1620.000000	59.685527 
1619.000000	60.694700 
1618.000000	61.858288 
1617.000000	63.196039 
1616.000000	64.590550 
1615.000000	65.904950 
1614.000000	67.138273 
1613.000000	68.372031 
1612.000000	69.655038 
1611.000000	70.965114 
1610.000000	72.259576 
1609.000000	73.531201 
1608.000000	74.776937 
1607.000000	75.959238 
1606.000000	77.053589 
1605.000000	78.090975 
1604.000000	79.100457 
1603.000000	80.057219 
1602.000000	80.931596 
1601.000000	81.740971 
1600.000000	82.504019 
1599.000000	83.195237 
1598.000000	83.795174 
1597.000000	84.335849 
1596.000000	84.845913 
1595.000000	85.298453 
1594.000000	85.665191 
1593.000000	85.973816 
1592.000000	86.254914 
1591.000000	86.485676 
1590.000000	86.640576 
1589.000000	86.746833 
1588.000000	86.832363 
1587.000000	86.869955 
1586.000000	86.830329 
1585.000000	86.740651 
1584.000000	86.631081 
1583.000000	86.470824 
1582.000000	86.228892 
1581.000000	85.944999 
1580.000000	85.666013 
1579.000000	85.355497 
1578.000000	84.930215 
1577.000000	84.361075 
1576.000000	83.713503 
1575.000000	83.078234 
1574.000000	82.493167 
1573.000000	81.946640 
1572.000000	81.376045 
1571.000000	80.667280 
1570.000000	79.759869 
1569.000000	78.781692 
1568.000000	77.892810 
1567.000000	77.065413 
1566.000000	76.181051 
1565.000000	75.220352 
1564.000000	74.290089 
1563.000000	73.475644 
1562.000000	72.741007 
1561.000000	71.937845 
1560.000000	70.812933 
1559.000000	69.300417 
1558.000000	67.902460 
1557.000000	66.903167 
1556.000000	66.100011 
1555.000000	65.260978 
1554.000000	64.337602 
1553.000000	63.436952 
1552.000000	62.620378 
1551.000000	61.819872 
1550.000000	60.977548 
1549.000000	60.162526 
1548.000000	59.467565 
1547.000000	58.870661 
1546.000000	58.282631 
1545.000000	57.674521 
1544.000000	57.106596 
1543.000000	56.618156 
1542.000000	56.154033 
1541.000000	55.634222 
1540.000000	55.082020 
1539.000000	54.629627 
1538.000000	54.355721 
1537.000000	54.234877 
1536.000000	54.197183 
1535.000000	54.171478 
1534.000000	54.116164 
1533.000000	54.060405 
1532.000000	54.068364 
1531.000000	54.155628 
1530.000000	54.298125 
1529.000000	54.474464 
1528.000000	54.678170 
1527.000000	54.908584 
1526.000000	55.161398 
1525.000000	55.433231 
1524.000000	55.724830 
1523.000000	56.033278 
1522.000000	56.347416 
1521.000000	56.661450 
1520.000000	56.988042 
1519.000000	57.340794 
1518.000000	57.714653 
1517.000000	58.095903 
1516.000000	58.483891 
1515.000000	58.892524 
1514.000000	59.337071 
1513.000000	59.827735 
1512.000000	60.367931 
1511.000000	60.954298 
1510.000000	61.583269 
1509.000000	62.275257 
1508.000000	63.098607 
1507.000000	64.118239 
1506.000000	65.235218 
1505.000000	66.270389 
1504.000000	67.231929 
1503.000000	68.218261 
1502.000000	69.282484 
1501.000000	70.416751 
1500.000000	71.582461 
1499.000000	72.762415 
1498.000000	73.968444 
1497.000000	75.185548 
1496.000000	76.351843 
1495.000000	77.419825 
1494.000000	78.385370 
1493.000000	79.265606 
1492.000000	80.100826 
1491.000000	80.937752 
1490.000000	81.755485 
1489.000000	82.466027 
1488.000000	83.039296 
1487.000000	83.529605 
1486.000000	83.963958 
1485.000000	84.314863 
1484.000000	84.576688 
1483.000000	84.774300 
1482.000000	84.897569 
1481.000000	84.899010 
1480.000000	84.770496 
1479.000000	84.535273 
1478.000000	84.163137 
1477.000000	83.589023 
1476.000000	82.819327 
1475.000000	81.899606 
1474.000000	80.769409 
1473.000000	79.343959 
1472.000000	77.785477 
1471.000000	76.403378 
1470.000000	75.297872 
1469.000000	74.394156 
1468.000000	73.634114 
1467.000000	72.988504 
1466.000000	72.381117 
1465.000000	71.716323 
1464.000000	70.988548 
1463.000000	70.264676 
1462.000000	69.577441 
1461.000000	68.929036 
1460.000000	68.346171 
1459.000000	67.875148 
1458.000000	67.561712 
1457.000000	67.473970 
1456.000000	67.658034 
1455.000000	68.055099 
1454.000000	68.572206 
1453.000000	69.149002 
1452.000000	69.750415 
1451.000000	70.349125 
1450.000000	70.931997 
1449.000000	71.504746 
1448.000000	72.075839 
1447.000000	72.647899 
1446.000000	73.227633 
1445.000000	73.832150 
1444.000000	74.476379 
1443.000000	75.168207 
1442.000000	75.905978 
1441.000000	76.668649 
1440.000000	77.427927 
1439.000000	78.189712 
1438.000000	79.002791 
1437.000000	79.876349 
1436.000000	80.707072 
1435.000000	81.402337 
1434.000000	81.999582 
1433.000000	82.567268 
1432.000000	83.119042 
1431.000000	83.639478 
1430.000000	84.129348 
1429.000000	84.590030 
1428.000000	85.003023 
1427.000000	85.369761 
1426.000000	85.728569 
1425.000000	86.103487 
1424.000000	86.467161 
1423.000000	86.787993 
1422.000000	87.079969 
1421.000000	87.364807 
1420.000000	87.621191 
1419.000000	87.814261 
1418.000000	87.958451 
1417.000000	88.076100 
1416.000000	88.156042 
1415.000000	88.199200 
1414.000000	88.235335 
1413.000000	88.275087 
1412.000000	88.292537 
1411.000000	88.277288 
1410.000000	88.257965 
1409.000000	88.249127 
1408.000000	88.225759 
1407.000000	88.170665 
1406.000000	88.097821 
1405.000000	88.011849 
1404.000000	87.892384 
1403.000000	87.741740 
1402.000000	87.585383 
1401.000000	87.407525 
1400.000000	87.149036 
1399.000000	86.792138 
1398.000000	86.378528 
1397.000000	85.897894 
1396.000000	85.252657 
1395.000000	84.373321 
1394.000000	83.301408 
1393.000000	82.110030 
1392.000000	80.828082 
1391.000000	79.489147 
1390.000000	78.162408 
1389.000000	76.922428 
1388.000000	75.867668 
1387.000000	75.163106 
1386.000000	74.947478 
1385.000000	75.211477 
1384.000000	75.848284 
1383.000000	76.741855 
1382.000000	77.768032 
1381.000000	78.792825 
1380.000000	79.714446 
1379.000000	80.484231 
1378.000000	81.081578 
1377.000000	81.480683 
1376.000000	81.634042 
1375.000000	81.476970 
1374.000000	80.960334 
1373.000000	80.088540 
1372.000000	78.915597 
1371.000000	77.519855 
1370.000000	76.009280 
1369.000000	74.555097 
1368.000000	73.392868 
1367.000000	72.744838 
1366.000000	72.727672 
1365.000000	73.341516 
1364.000000	74.502647 
1363.000000	76.034725 
1362.000000	77.669354 
1361.000000	79.156442 
1360.000000	80.382237 
1359.000000	81.352255 
1358.000000	82.108787 
1357.000000	82.687314 
1356.000000	83.116333 
1355.000000	83.426494 
1354.000000	83.648451 
1353.000000	83.804313 
1352.000000	83.908870 
1351.000000	83.979633 
1350.000000	84.036140 
1349.000000	84.087919 
1348.000000	84.130463 
1347.000000	84.156996 
1346.000000	84.167734 
1345.000000	84.168118 
1344.000000	84.166518 
1343.000000	84.173866 
1342.000000	84.196313 
1341.000000	84.227166 
1340.000000	84.254584 
1339.000000	84.277641 
1338.000000	84.303925 
1337.000000	84.332950 
1336.000000	84.354743 
1335.000000	84.362381 
1334.000000	84.355332 
1333.000000	84.332509 
1332.000000	84.293201 
1331.000000	84.245368 
1330.000000	84.202112 
1329.000000	84.168689 
1328.000000	84.142867 
1327.000000	84.127979 
1326.000000	84.134803 
1325.000000	84.170908 
1324.000000	84.238022 
1323.000000	84.339358 
1322.000000	84.479043 
1321.000000	84.654367 
1320.000000	84.857827 
1319.000000	85.086684 
1318.000000	85.341690 
1317.000000	85.616731 
1316.000000	85.898900 
1315.000000	86.177416 
1314.000000	86.443095 
1313.000000	86.680120 
1312.000000	86.869432 
1311.000000	87.003136 
1310.000000	87.087091 
1309.000000	87.128354 
1308.000000	87.129865 
1307.000000	87.098761 
1306.000000	87.048432 
1305.000000	86.988553 
1304.000000	86.921288 
1303.000000	86.848529 
1302.000000	86.772816 
1301.000000	86.689840 
1300.000000	86.590512 
1299.000000	86.472989 
1298.000000	86.344060 
1297.000000	86.207718 
1296.000000	86.061676 
1295.000000	85.905166 
1294.000000	85.739895 
1293.000000	85.562857 
1292.000000	85.368648 
1291.000000	85.159752 
1290.000000	84.945229 
1289.000000	84.729461 
1288.000000	84.511428 
1287.000000	84.293349 
1286.000000	84.079649 
1285.000000	83.869195 
1284.000000	83.659098 
1283.000000	83.454267 
1282.000000	83.263423 
1281.000000	83.088117 
1280.000000	82.925195 
1279.000000	82.776178 
1278.000000	82.644208 
1277.000000	82.526219 
1276.000000	82.418958 
1275.000000	82.328165 
1274.000000	82.260362 
1273.000000	82.209384 
1272.000000	82.162411 
1271.000000	82.116276 
1270.000000	82.077099 
1269.000000	82.047006 
1268.000000	82.022393 
1267.000000	82.002409 
1266.000000	81.988480 
1265.000000	81.977769 
1264.000000	81.966450 
1263.000000	81.956210 
1262.000000	81.948459 
1261.000000	81.936479 
1260.000000	81.913414 
1259.000000	81.883650 
1258.000000	81.855534 
1257.000000	81.826615 
1256.000000	81.786874 
1255.000000	81.732982 
1254.000000	81.669220 
1253.000000	81.597778 
1252.000000	81.518936 
1251.000000	81.438000 
1250.000000	81.361324 
1249.000000	81.287541 
1248.000000	81.212042 
1247.000000	81.137115 
1246.000000	81.068953 
1245.000000	81.008636 
1244.000000	80.954933 
1243.000000	80.911167 
1242.000000	80.880100 
1241.000000	80.857105 
1240.000000	80.837133 
1239.000000	80.822432 
1238.000000	80.814809 
1237.000000	80.807601 
1236.000000	80.795157 
1235.000000	80.783157 
1234.000000	80.779593 
1233.000000	80.783104 
1232.000000	80.790676 
1231.000000	80.808544 
1230.000000	80.843439 
1229.000000	80.890226 
1228.000000	80.940064 
1227.000000	80.993918 
1226.000000	81.056195 
1225.000000	81.121402 
1224.000000	81.178892 
1223.000000	81.224734 
1222.000000	81.257481 
1221.000000	81.269166 
1220.000000	81.254325 
1219.000000	81.223734 
1218.000000	81.196424 
1217.000000	81.181417 
1216.000000	81.178371 
1215.000000	81.189866 
1214.000000	81.218696 
1213.000000	81.257035 
1212.000000	81.292430 
1211.000000	81.323248 
1210.000000	81.357325 
1209.000000	81.398156 
1208.000000	81.443336 
1207.000000	81.493245 
1206.000000	81.549805 
1205.000000	81.608918 
1204.000000	81.664614 
1203.000000	81.718553 
1202.000000	81.775803 
1201.000000	81.833160 
1200.000000	81.880339 
1199.000000	81.910253 
1198.000000	81.920236 
1197.000000	81.906362 
1196.000000	81.864940 
1195.000000	81.796858 
1194.000000	81.703021 
1193.000000	81.579277 
1192.000000	81.422895 
1191.000000	81.238192 
1190.000000	81.027221 
1189.000000	80.781274 
1188.000000	80.491235 
1187.000000	80.159414 
1186.000000	79.790593 
1185.000000	79.378625 
1184.000000	78.913467 
1183.000000	78.393504 
1182.000000	77.818409 
1181.000000	77.178316 
1180.000000	76.464347 
1179.000000	75.682925 
1178.000000	74.848434 
1177.000000	73.974923 
1176.000000	73.092589 
1175.000000	72.261640 
1174.000000	71.552113 
1173.000000	71.019333 
1172.000000	70.709740 
1171.000000	70.667473 
1170.000000	70.910917 
1169.000000	71.412362 
1168.000000	72.110404 
1167.000000	72.926436 
1166.000000	73.765191 
1165.000000	74.526665 
1164.000000	75.140745 
1163.000000	75.589271 
1162.000000	75.891587 
1161.000000	76.079685 
1160.000000	76.193740 
1159.000000	76.284295 
1158.000000	76.397816 
1157.000000	76.562678 
1156.000000	76.798044 
1155.000000	77.125421 
1154.000000	77.558993 
1153.000000	78.093632 
1152.000000	78.713358 
1151.000000	79.403643 
1150.000000	80.147218 
1149.000000	80.916353 
1148.000000	81.678323 
1147.000000	82.403900 
1146.000000	83.065187 
1145.000000	83.631267 
1144.000000	84.073861 
1143.000000	84.374297 
1142.000000	84.517015 
1141.000000	84.478292 
1140.000000	84.230938 
1139.000000	83.759796 
1138.000000	83.064098 
1137.000000	82.150873 
1136.000000	81.047231 
1135.000000	79.824089 
1134.000000	78.593007 
1133.000000	77.478041 
1132.000000	76.599492 
1131.000000	76.065648 
1130.000000	75.946321 
1129.000000	76.247202 
1128.000000	76.912804 
1127.000000	77.842141 
1126.000000	78.903692 
1125.000000	79.964969 
1124.000000	80.931110 
1123.000000	81.760652 
1122.000000	82.449050 
1121.000000	83.006195 
1120.000000	83.451193 
1119.000000	83.814730 
1118.000000	84.129399 
1117.000000	84.415419 
1116.000000	84.681180 
1115.000000	84.932374 
1114.000000	85.171177 
1113.000000	85.391516 
1112.000000	85.587377 
1111.000000	85.764907 
1110.000000	85.936966 
1109.000000	86.108060 
1108.000000	86.274923 
1107.000000	86.439583 
1106.000000	86.610143 
1105.000000	86.789335 
1104.000000	86.973475 
1103.000000	87.162823 
1102.000000	87.362337 
1101.000000	87.571056 
1100.000000	87.780013 
1099.000000	87.981678 
1098.000000	88.174124 
1097.000000	88.355928 
1096.000000	88.525696 
1095.000000	88.686988 
1094.000000	88.845071 
1093.000000	88.997936 
1092.000000	89.138188 
1091.000000	89.263349 
1090.000000	89.376027 
1089.000000	89.475059 
1088.000000	89.556121 
1087.000000	89.620095 
1086.000000	89.670295 
1085.000000	89.702367 
1084.000000	89.708688 
1083.000000	89.692641 
1082.000000	89.666549 
1081.000000	89.635635 
1080.000000	89.597055 
1079.000000	89.554989 
1078.000000	89.522443 
1077.000000	89.505801 
1076.000000	89.500015 
1075.000000	89.500550 
1074.000000	89.508270 
1073.000000	89.521669 
1072.000000	89.535863 
1071.000000	89.549507 
1070.000000	89.562035 
1069.000000	89.566630 
1068.000000	89.559740 
1067.000000	89.555824 
1066.000000	89.576629 
1065.000000	89.624909 
1064.000000	89.683894 
1063.000000	89.743667 
1062.000000	89.812326 
1061.000000	89.897938 
1060.000000	89.994464 
1059.000000	90.090350 
1058.000000	90.178464 
1057.000000	90.253243 
1056.000000	90.310176 
1055.000000	90.353321 
1054.000000	90.392941 
1053.000000	90.431134 
1052.000000	90.459664 
1051.000000	90.474999 
1050.000000	90.482951 
1049.000000	90.485409 
1048.000000	90.477818 
1047.000000	90.463370 
1046.000000	90.453972 
1045.000000	90.453953 
1044.000000	90.457483 
1043.000000	90.464587 
1042.000000	90.484979 
1041.000000	90.521410 
1040.000000	90.562769 
1039.000000	90.599652 
1038.000000	90.634600 
1037.000000	90.670777 
1036.000000	90.702886 
1035.000000	90.727240 
1034.000000	90.749921 
1033.000000	90.776028 
1032.000000	90.799406 
1031.000000	90.811319 
1030.000000	90.812245 
1029.000000	90.807838 
1028.000000	90.799681 
1027.000000	90.786867 
1026.000000	90.771518 
1025.000000	90.757552 
1024.000000	90.748775 
1023.000000	90.751185 
1022.000000	90.770473 
1021.000000	90.803716 
1020.000000	90.839996 
1019.000000	90.872398 
1018.000000	90.902865 
1017.000000	90.932315 
1016.000000	90.953954 
1015.000000	90.961862 
1014.000000	90.960250 
1013.000000	90.958335 
1012.000000	90.959557 
1011.000000	90.959611 
1010.000000	90.951933 
1009.000000	90.932806 
1008.000000	90.904487 
1007.000000	90.875038 
1006.000000	90.851871 
1005.000000	90.834640 
1004.000000	90.816735 
1003.000000	90.791501 
1002.000000	90.752627 
1001.000000	90.691948 
1000.000000	90.604759 
999.000000	 90.496912 
998.000000	 90.380001 
997.000000	 90.260147 
996.000000	 90.137650 
995.000000	 90.014882 
994.000000	 89.896147 
993.000000	 89.781584 
992.000000	 89.669873 
991.000000	 89.565411 
990.000000	 89.474269 
989.000000	 89.394747 
988.000000	 89.320957 
987.000000	 89.254301 
986.000000	 89.202438 
985.000000	 89.167857 
984.000000	 89.146071 
983.000000	 89.133600 
982.000000	 89.128787 
981.000000	 89.125865 
980.000000	 89.117840 
979.000000	 89.106245 
978.000000	 89.100990 
977.000000	 89.110699 
976.000000	 89.138974 
975.000000	 89.187118 
974.000000	 89.252054 
973.000000	 89.323602 
972.000000	 89.392986 
971.000000	 89.463790 
970.000000	 89.546907 
969.000000	 89.645637 
968.000000	 89.753729 
967.000000	 89.866629 
966.000000	 89.985109 
965.000000	 90.107143 
964.000000	 90.224847 
963.000000	 90.331604 
962.000000	 90.426126 
961.000000	 90.508986 
960.000000	 90.581403 
959.000000	 90.647137 
958.000000	 90.708522 
957.000000	 90.761013 
956.000000	 90.799282 
955.000000	 90.828347 
954.000000	 90.860633 
953.000000	 90.902152 
952.000000	 90.950005 
951.000000	 91.003005 
950.000000	 91.065116 
949.000000	 91.137332 
948.000000	 91.214904 
947.000000	 91.293264 
946.000000	 91.367574 
945.000000	 91.425807 
944.000000	 91.453192 
943.000000	 91.447218 
942.000000	 91.419248 
941.000000	 91.377247 
940.000000	 91.315127 
939.000000	 91.222946 
938.000000	 91.099734 
937.000000	 90.952236 
936.000000	 90.787744 
935.000000	 90.611377 
934.000000	 90.424308 
933.000000	 90.223228 
932.000000	 90.008568 
931.000000	 89.794249 
930.000000	 89.602539 
929.000000	 89.450133 
928.000000	 89.347164 
927.000000	 89.306495 
926.000000	 89.341089 
925.000000	 89.450105 
924.000000	 89.616398 
923.000000	 89.818727 
922.000000	 90.039109 
921.000000	 90.258701 
920.000000	 90.456583 
919.000000	 90.617957 
918.000000	 90.739882 
917.000000	 90.827587 
916.000000	 90.890179 
915.000000	 90.940333 
914.000000	 90.990592 
913.000000	 91.046914 
912.000000	 91.110647 
911.000000	 91.187128 
910.000000	 91.285758 
909.000000	 91.410622 
908.000000	 91.557312 
907.000000	 91.719543 
906.000000	 91.892256 
905.000000	 92.067086 
904.000000	 92.231316 
903.000000	 92.374033 
902.000000	 92.489914 
901.000000	 92.577149 
900.000000	 92.636390 
899.000000	 92.670478 
898.000000	 92.678331 
897.000000	 92.649600 
896.000000	 92.572703 
895.000000	 92.447604 
894.000000	 92.282953 
893.000000	 92.082168 
892.000000	 91.842406 
891.000000	 91.566776 
890.000000	 91.266919 
889.000000	 90.954154 
888.000000	 90.640100 
887.000000	 90.345954 
886.000000	 90.097576 
885.000000	 89.908515 
884.000000	 89.777415 
883.000000	 89.701146 
882.000000	 89.679498 
881.000000	 89.708376 
880.000000	 89.780673 
879.000000	 89.894235 
878.000000	 90.048122 
877.000000	 90.230953 
876.000000	 90.423881 
875.000000	 90.615958 
874.000000	 90.807101 
873.000000	 90.996038 
872.000000	 91.176011 
871.000000	 91.343462 
870.000000	 91.500926 
869.000000	 91.649371 
868.000000	 91.785787 
867.000000	 91.909134 
866.000000	 92.020513 
865.000000	 92.116946 
864.000000	 92.193306 
863.000000	 92.251117 
862.000000	 92.297819 
861.000000	 92.337384 
860.000000	 92.369185 
859.000000	 92.394090 
858.000000	 92.411490 
857.000000	 92.411783 
856.000000	 92.383743 
855.000000	 92.329636 
854.000000	 92.261009 
853.000000	 92.178356 
852.000000	 92.067836 
851.000000	 91.920033 
850.000000	 91.738274 
849.000000	 91.524422 
848.000000	 91.270121 
847.000000	 90.969285 
846.000000	 90.629819 
845.000000	 90.268707 
844.000000	 89.905779 
843.000000	 89.566219 
842.000000	 89.278536 
841.000000	 89.064335 
840.000000	 88.934846 
839.000000	 88.895564 
838.000000	 88.944956 
837.000000	 89.068813 
836.000000	 89.244110 
835.000000	 89.449937 
834.000000	 89.671756 
833.000000	 89.898808 
832.000000	 90.123679 
831.000000	 90.341972 
830.000000	 90.546119 
829.000000	 90.722536 
828.000000	 90.862803 
827.000000	 90.975187 
826.000000	 91.075023 
825.000000	 91.163809 
824.000000	 91.228086 
823.000000	 91.258950 
822.000000	 91.262151 
821.000000	 91.249128 
820.000000	 91.227762 
819.000000	 91.200401 
818.000000	 91.162119 
817.000000	 91.102641 
816.000000	 91.016403 
815.000000	 90.906921 
814.000000	 90.775557 
813.000000	 90.614388 
812.000000	 90.421477 
811.000000	 90.216812 
810.000000	 90.030078 
809.000000	 89.876654 
808.000000	 89.756559 
807.000000	 89.669333 
806.000000	 89.614738 
805.000000	 89.583679 
804.000000	 89.563717 
803.000000	 89.551354 
802.000000	 89.546754 
801.000000	 89.540513 
800.000000	 89.519131 
799.000000	 89.480800 
798.000000	 89.433561 
797.000000	 89.381301 
796.000000	 89.324038 
795.000000	 89.268225 
794.000000	 89.223221 
793.000000	 89.189695 
792.000000	 89.162348 
791.000000	 89.138872 
790.000000	 89.114488 
789.000000	 89.075061 
788.000000	 89.011709 
787.000000	 88.938220 
786.000000	 88.878321 
785.000000	 88.837803 
784.000000	 88.802858 
783.000000	 88.762051 
782.000000	 88.714596 
781.000000	 88.659764 
780.000000	 88.594499 
779.000000	 88.521957 
778.000000	 88.449130 
777.000000	 88.375887 
776.000000	 88.296942 
775.000000	 88.211085 
774.000000	 88.116250 
773.000000	 88.000444 
772.000000	 87.852906 
771.000000	 87.681701 
770.000000	 87.505122 
769.000000	 87.326893 
768.000000	 87.134214 
767.000000	 86.918971 
766.000000	 86.686700 
765.000000	 86.445077 
764.000000	 86.196696 
763.000000	 85.943441 
762.000000	 85.687806 
761.000000	 85.431846 
760.000000	 85.183014 
759.000000	 84.954026 
758.000000	 84.745615 
757.000000	 84.538604 
756.000000	 84.318810 
755.000000	 84.103449 
754.000000	 83.926823 
753.000000	 83.804274 
752.000000	 83.724532 
751.000000	 83.670856 
750.000000	 83.632588 
749.000000	 83.599573 
748.000000	 83.562356 
747.000000	 83.519760 
746.000000	 83.476094 
745.000000	 83.431210 
744.000000	 83.380379 
743.000000	 83.319864 
742.000000	 83.245302 
741.000000	 83.151061 
740.000000	 83.039350 
739.000000	 82.921900 
738.000000	 82.803865 
737.000000	 82.675240 
736.000000	 82.527457 
735.000000	 82.367995 
734.000000	 82.207768 
733.000000	 82.045167 
732.000000	 81.875741 
731.000000	 81.707018 
730.000000	 81.548307 
729.000000	 81.393492 
728.000000	 81.231005 
727.000000	 81.064173 
726.000000	 80.905700 
725.000000	 80.758655 
724.000000	 80.614102 
723.000000	 80.460391 
722.000000	 80.287487 
721.000000	 80.095136 
720.000000	 79.905453 
719.000000	 79.748161 
718.000000	 79.624405 
717.000000	 79.506913 
716.000000	 79.377669 
715.000000	 79.244316 
714.000000	 79.114260 
713.000000	 78.974648 
712.000000	 78.814992 
711.000000	 78.649888 
710.000000	 78.499905 
709.000000	 78.364822 
708.000000	 78.233120 
707.000000	 78.102713 
706.000000	 77.972832 
705.000000	 77.833768 
704.000000	 77.684038 
703.000000	 77.539075 
702.000000	 77.406994 
701.000000	 77.274331 
700.000000	 77.131389 
699.000000	 76.994094 
698.000000	 76.878413 
697.000000	 76.772868 
696.000000	 76.658529 
695.000000	 76.535866 
694.000000	 76.415388 
693.000000	 76.298499 
692.000000	 76.185833 
691.000000	 76.088187 
690.000000	 76.004106 
689.000000	 75.907089 
688.000000	 75.779645 
687.000000	 75.640275 
686.000000	 75.516548 
685.000000	 75.411834 
684.000000	 75.316923 
683.000000	 75.230041 
682.000000	 75.144428 
681.000000	 75.041586 
680.000000	 74.916999 
679.000000	 74.791515 
678.000000	 74.681109 
677.000000	 74.578336 
676.000000	 74.486135 
675.000000	 74.412245 
674.000000	 74.335767 
673.000000	 74.228413 
672.000000	 74.116972 
671.000000	 74.068112 
670.000000	 74.110716 
669.000000	 74.177404 
668.000000	 74.099073 
667.000000	 73.805125 
666.000000	 73.529283 
665.000000	 73.386485 
664.000000	 73.313232 
663.000000	 73.278307 
662.000000	 73.273823 
661.000000	 73.264260 
660.000000	 73.225289 
659.000000	 73.182900 
658.000000	 73.160920 
657.000000	 73.126042 
656.000000	 73.048813 
655.000000	 72.955413 
654.000000	 72.877697 
653.000000	 72.798947 
652.000000	 72.703236 
651.000000	 72.629048 
650.000000	 72.618032 

