PE IR                   SPECTRUM    ASCII       PEDS        1.60        
  -1
~SP.SP
18/03/23
17:48:05.00
18/03/23
17:48:05.00
pili
NI
650.000000
4









SPECTRUM 100,CPU32 MAIN 00.02.8200 12-DECEMBER-2006 10:00:00
MIR TGS
MIR
OPTKBR
78890
0.200000

4.000000
STRONG
RATIO
SPECTRUM
MAGNITUDE
UNIVERSAL ATR
DOUBLE

COMBINED


0


#HDR
-1
-1
#GR
CM-1
%T
0.00002384185791015625
0.0
4000.000000
-1.000000
3351
8
101.676435
49.943242
#DATA
4000.000000	98.148994  
3999.000000	98.146843  
3998.000000	98.145854  
3997.000000	98.149070  
3996.000000	98.152702  
3995.000000	98.160412  
3994.000000	98.167442  
3993.000000	98.175088  
3992.000000	98.185767  
3991.000000	98.198523  
3990.000000	98.208138  
3989.000000	98.208995  
3988.000000	98.199626  
3987.000000	98.183874  
3986.000000	98.168473  
3985.000000	98.159436  
3984.000000	98.159087  
3983.000000	98.165151  
3982.000000	98.172489  
3981.000000	98.176598  
3980.000000	98.176618  
3979.000000	98.175347  
3978.000000	98.176069  
3977.000000	98.179026  
3976.000000	98.181086  
3975.000000	98.179013  
3974.000000	98.172485  
3973.000000	98.163615  
3972.000000	98.154259  
3971.000000	98.145075  
3970.000000	98.137216  
3969.000000	98.133515  
3968.000000	98.136587  
3967.000000	98.145896  
3966.000000	98.157664  
3965.000000	98.167928  
3964.000000	98.175058  
3963.000000	98.179037  
3962.000000	98.179152  
3961.000000	98.173884  
3960.000000	98.163870  
3959.000000	98.153835  
3958.000000	98.149995  
3957.000000	98.155072  
3956.000000	98.166289  
3955.000000	98.178414  
3954.000000	98.188256  
3953.000000	98.195604  
3952.000000	98.200717  
3951.000000	98.202580  
3950.000000	98.200350  
3949.000000	98.195528  
3948.000000	98.191193  
3947.000000	98.189180  
3946.000000	98.189152  
3945.000000	98.190142  
3944.000000	98.191949  
3943.000000	98.194895  
3942.000000	98.198613  
3941.000000	98.201297  
3940.000000	98.200651  
3939.000000	98.195910  
3938.000000	98.188861  
3937.000000	98.182863  
3936.000000	98.180826  
3935.000000	98.183519  
3934.000000	98.189185  
3933.000000	98.194748  
3932.000000	98.198055  
3931.000000	98.199405  
3930.000000	98.200408  
3929.000000	98.201456  
3928.000000	98.201129  
3927.000000	98.198622  
3926.000000	98.196060  
3925.000000	98.197482  
3924.000000	98.205336  
3923.000000	98.217703  
3922.000000	98.229106  
3921.000000	98.234541  
3920.000000	98.233356  
3919.000000	98.229686  
3918.000000	98.228509  
3917.000000	98.230833  
3916.000000	98.233351  
3915.000000	98.232298  
3914.000000	98.226628  
3913.000000	98.217729  
3912.000000	98.208156  
3911.000000	98.200581  
3910.000000	98.196944  
3909.000000	98.197580  
3908.000000	98.201240  
3907.000000	98.205836  
3906.000000	98.209695  
3905.000000	98.213028  
3904.000000	98.218424  
3903.000000	98.228031  
3902.000000	98.238452  
3901.000000	98.240982  
3900.000000	98.229073  
3899.000000	98.206033  
3898.000000	98.184109  
3897.000000	98.174608  
3896.000000	98.180188  
3895.000000	98.195201  
3894.000000	98.210245  
3893.000000	98.217332  
3892.000000	98.214915  
3891.000000	98.208919  
3890.000000	98.206304  
3889.000000	98.208742  
3888.000000	98.213065  
3887.000000	98.214182  
3886.000000	98.209112  
3885.000000	98.201151  
3884.000000	98.196953  
3883.000000	98.199058  
3882.000000	98.204190  
3881.000000	98.207942  
3880.000000	98.209394  
3879.000000	98.209970  
3878.000000	98.209042  
3877.000000	98.204842  
3876.000000	98.198607  
3875.000000	98.195067  
3874.000000	98.199180  
3873.000000	98.212585  
3872.000000	98.231248  
3871.000000	98.245748  
3870.000000	98.247343  
3869.000000	98.236411  
3868.000000	98.222252  
3867.000000	98.214015  
3866.000000	98.213206  
3865.000000	98.212896  
3864.000000	98.206592  
3863.000000	98.196908  
3862.000000	98.192639  
3861.000000	98.199047  
3860.000000	98.213636  
3859.000000	98.228532  
3858.000000	98.237598  
3857.000000	98.241210  
3856.000000	98.243049  
3855.000000	98.240501  
3854.000000	98.223161  
3853.000000	98.193312  
3852.000000	98.169216  
3851.000000	98.160437  
3850.000000	98.166312  
3849.000000	98.183980  
3848.000000	98.207866  
3847.000000	98.230000  
3846.000000	98.243463  
3845.000000	98.246168  
3844.000000	98.241873  
3843.000000	98.235695  
3842.000000	98.229926  
3841.000000	98.224004  
3840.000000	98.216877  
3839.000000	98.209396  
3838.000000	98.205149  
3837.000000	98.206555  
3836.000000	98.211598  
3835.000000	98.216722  
3834.000000	98.221463  
3833.000000	98.227892  
3832.000000	98.235864  
3831.000000	98.241116  
3830.000000	98.238809  
3829.000000	98.228235  
3828.000000	98.214326  
3827.000000	98.203024  
3826.000000	98.195194  
3825.000000	98.187300  
3824.000000	98.178119  
3823.000000	98.171465  
3822.000000	98.171911  
3821.000000	98.179591  
3820.000000	98.190059  
3819.000000	98.197426  
3818.000000	98.199418  
3817.000000	98.198999  
3816.000000	98.199393  
3815.000000	98.200967  
3814.000000	98.202494  
3813.000000	98.202813  
3812.000000	98.201348  
3811.000000	98.198655  
3810.000000	98.196729  
3809.000000	98.197540  
3808.000000	98.200283  
3807.000000	98.201523  
3806.000000	98.199591  
3805.000000	98.196304  
3804.000000	98.194832  
3803.000000	98.196026  
3802.000000	98.197089  
3801.000000	98.197012  
3800.000000	98.199434  
3799.000000	98.206426  
3798.000000	98.215716  
3797.000000	98.223224  
3796.000000	98.226284  
3795.000000	98.226967  
3794.000000	98.230133  
3793.000000	98.237851  
3792.000000	98.247022  
3791.000000	98.252520  
3790.000000	98.252218  
3789.000000	98.248938  
3788.000000	98.247313  
3787.000000	98.249434  
3786.000000	98.253528  
3785.000000	98.256339  
3784.000000	98.256593  
3783.000000	98.255940  
3782.000000	98.256707  
3781.000000	98.258947  
3780.000000	98.260358  
3779.000000	98.259458  
3778.000000	98.257673  
3777.000000	98.256793  
3776.000000	98.255951  
3775.000000	98.251294  
3774.000000	98.239247  
3773.000000	98.221275  
3772.000000	98.205155  
3771.000000	98.199514  
3770.000000	98.206711  
3769.000000	98.221584  
3768.000000	98.236092  
3767.000000	98.244943  
3766.000000	98.247584  
3765.000000	98.245607  
3764.000000	98.240171  
3763.000000	98.232402  
3762.000000	98.224703  
3761.000000	98.220489  
3760.000000	98.222563  
3759.000000	98.230511  
3758.000000	98.238905  
3757.000000	98.240540  
3756.000000	98.234576  
3755.000000	98.228872  
3754.000000	98.231468  
3753.000000	98.239997  
3752.000000	98.242269  
3751.000000	98.232512  
3750.000000	98.220840  
3749.000000	98.216861  
3748.000000	98.217960  
3747.000000	98.218688  
3746.000000	98.216620  
3745.000000	98.211335  
3744.000000	98.206762  
3743.000000	98.207620  
3742.000000	98.212245  
3741.000000	98.215970  
3740.000000	98.216736  
3739.000000	98.215655  
3738.000000	98.214832  
3737.000000	98.213884  
3736.000000	98.211501  
3735.000000	98.211177  
3734.000000	98.219695  
3733.000000	98.236823  
3732.000000	98.252229  
3731.000000	98.255429  
3730.000000	98.245952  
3729.000000	98.233799  
3728.000000	98.230570  
3727.000000	98.239494  
3726.000000	98.253182  
3725.000000	98.261776  
3724.000000	98.261398  
3723.000000	98.254548  
3722.000000	98.246835  
3721.000000	98.243210  
3720.000000	98.245158  
3719.000000	98.251491  
3718.000000	98.260586  
3717.000000	98.270866  
3716.000000	98.281444  
3715.000000	98.290218  
3714.000000	98.292497  
3713.000000	98.283694  
3712.000000	98.266825  
3711.000000	98.253990  
3710.000000	98.253856  
3709.000000	98.263269  
3708.000000	98.272498  
3707.000000	98.275381  
3706.000000	98.272529  
3705.000000	98.269168  
3704.000000	98.269175  
3703.000000	98.271149  
3702.000000	98.271338  
3701.000000	98.270232  
3700.000000	98.272662  
3699.000000	98.281250  
3698.000000	98.293463  
3697.000000	98.303729  
3696.000000	98.309221  
3695.000000	98.311207  
3694.000000	98.311038  
3693.000000	98.306464  
3692.000000	98.295585  
3691.000000	98.281565  
3690.000000	98.270286  
3689.000000	98.265263  
3688.000000	98.266098  
3687.000000	98.272522  
3686.000000	98.286365  
3685.000000	98.307269  
3684.000000	98.327238  
3683.000000	98.336137  
3682.000000	98.332166  
3681.000000	98.323184  
3680.000000	98.316868  
3679.000000	98.313516  
3678.000000	98.308887  
3677.000000	98.298263  
3676.000000	98.279855  
3675.000000	98.260765  
3674.000000	98.250547  
3673.000000	98.250076  
3672.000000	98.256200  
3671.000000	98.265726  
3670.000000	98.276412  
3669.000000	98.291028  
3668.000000	98.312637  
3667.000000	98.337146  
3666.000000	98.357833  
3665.000000	98.371381  
3664.000000	98.378357  
3663.000000	98.381129  
3662.000000	98.381128  
3661.000000	98.378425  
3660.000000	98.373047  
3659.000000	98.365979  
3658.000000	98.358845  
3657.000000	98.354060  
3656.000000	98.354863  
3655.000000	98.363084  
3654.000000	98.377120  
3653.000000	98.393711  
3652.000000	98.407939  
3651.000000	98.410944  
3650.000000	98.395966  
3649.000000	98.371013  
3648.000000	98.354528  
3647.000000	98.355535  
3646.000000	98.368932  
3645.000000	98.385628  
3644.000000	98.400384  
3643.000000	98.412794  
3642.000000	98.423649  
3641.000000	98.432021  
3640.000000	98.435669  
3639.000000	98.432913  
3638.000000	98.423605  
3637.000000	98.409931  
3636.000000	98.396834  
3635.000000	98.390406  
3634.000000	98.393547  
3633.000000	98.404120  
3632.000000	98.417970  
3631.000000	98.431496  
3630.000000	98.440636  
3629.000000	98.442864  
3628.000000	98.442358  
3627.000000	98.443636  
3626.000000	98.445175  
3625.000000	98.445027  
3624.000000	98.443791  
3623.000000	98.443608  
3622.000000	98.447430  
3621.000000	98.456430  
3620.000000	98.467757  
3619.000000	98.477872  
3618.000000	98.486161  
3617.000000	98.492352  
3616.000000	98.494229  
3615.000000	98.489224  
3614.000000	98.477821  
3613.000000	98.466262  
3612.000000	98.464108  
3611.000000	98.476448  
3610.000000	98.498727  
3609.000000	98.519392  
3608.000000	98.528103  
3607.000000	98.524970  
3606.000000	98.519770  
3605.000000	98.523215  
3604.000000	98.539056  
3603.000000	98.561718  
3602.000000	98.581595  
3601.000000	98.593067  
3600.000000	98.598762  
3599.000000	98.605136  
3598.000000	98.615090  
3597.000000	98.625588  
3596.000000	98.632467  
3595.000000	98.634692  
3594.000000	98.634689  
3593.000000	98.635176  
3592.000000	98.636771  
3591.000000	98.638886  
3590.000000	98.641292  
3589.000000	98.644074  
3588.000000	98.647246  
3587.000000	98.652642  
3586.000000	98.662667  
3585.000000	98.677060  
3584.000000	98.692664  
3583.000000	98.705840  
3582.000000	98.714664  
3581.000000	98.720083  
3580.000000	98.725642  
3579.000000	98.733830  
3578.000000	98.742768  
3577.000000	98.746082  
3576.000000	98.737855  
3575.000000	98.717605  
3574.000000	98.691549  
3573.000000	98.669129  
3572.000000	98.658794  
3571.000000	98.665657  
3570.000000	98.690227  
3569.000000	98.725513  
3568.000000	98.756578  
3567.000000	98.770987  
3566.000000	98.771660  
3565.000000	98.772709  
3564.000000	98.784364  
3563.000000	98.805958  
3562.000000	98.829646  
3561.000000	98.848370  
3560.000000	98.860704  
3559.000000	98.869579  
3558.000000	98.877989  
3557.000000	98.886484  
3556.000000	98.894089  
3555.000000	98.901014  
3554.000000	98.910357  
3553.000000	98.926502  
3552.000000	98.950897  
3551.000000	98.979571  
3550.000000	99.005569  
3549.000000	99.022934  
3548.000000	99.028310  
3547.000000	99.021703  
3546.000000	99.008626  
3545.000000	98.999444  
3544.000000	99.001909  
3543.000000	99.013611  
3542.000000	99.023957  
3541.000000	99.024718  
3540.000000	99.017520  
3539.000000	99.010959  
3538.000000	99.011611  
3537.000000	99.019037  
3536.000000	99.028219  
3535.000000	99.034954  
3534.000000	99.039103  
3533.000000	99.044724  
3532.000000	99.057307  
3531.000000	99.079060  
3530.000000	99.105144  
3529.000000	99.125456  
3528.000000	99.131896  
3527.000000	99.125201  
3526.000000	99.114760  
3525.000000	99.111448  
3524.000000	99.119797  
3523.000000	99.135777  
3522.000000	99.151830  
3521.000000	99.163404  
3520.000000	99.170568  
3519.000000	99.175046  
3518.000000	99.178328  
3517.000000	99.182714  
3516.000000	99.191383  
3515.000000	99.205011  
3514.000000	99.219477  
3513.000000	99.229416  
3512.000000	99.233929  
3511.000000	99.236953  
3510.000000	99.241747  
3509.000000	99.246742  
3508.000000	99.247936  
3507.000000	99.244126  
3506.000000	99.238077  
3505.000000	99.232777  
3504.000000	99.227876  
3503.000000	99.220830  
3502.000000	99.211334  
3501.000000	99.203082  
3500.000000	99.200613  
3499.000000	99.205276  
3498.000000	99.215078  
3497.000000	99.227553  
3496.000000	99.241085  
3495.000000	99.253129  
3494.000000	99.259612  
3493.000000	99.258203  
3492.000000	99.251305  
3491.000000	99.244040  
3490.000000	99.239946  
3489.000000	99.240081  
3488.000000	99.245484  
3487.000000	99.257623  
3486.000000	99.275222  
3485.000000	99.292326  
3484.000000	99.301241  
3483.000000	99.297531  
3482.000000	99.282795  
3481.000000	99.263744  
3480.000000	99.248877  
3479.000000	99.244316  
3478.000000	99.250216  
3477.000000	99.260248  
3476.000000	99.265952  
3475.000000	99.263681  
3474.000000	99.258003  
3473.000000	99.257442  
3472.000000	99.266495  
3471.000000	99.281414  
3470.000000	99.293472  
3469.000000	99.296496  
3468.000000	99.291935  
3467.000000	99.287623  
3466.000000	99.291137  
3465.000000	99.302953  
3464.000000	99.315577  
3463.000000	99.320663  
3462.000000	99.318722  
3461.000000	99.320633  
3460.000000	99.337261  
3459.000000	99.367235  
3458.000000	99.396471  
3457.000000	99.410543  
3456.000000	99.406543  
3455.000000	99.393296  
3454.000000	99.382558  
3453.000000	99.381246  
3452.000000	99.389637  
3451.000000	99.402733  
3450.000000	99.412562  
3449.000000	99.412537  
3448.000000	99.403017  
3447.000000	99.392531  
3446.000000	99.390658  
3445.000000	99.398356  
3444.000000	99.406682  
3443.000000	99.405607  
3442.000000	99.393461  
3441.000000	99.377316  
3440.000000	99.364964  
3439.000000	99.358623  
3438.000000	99.356193  
3437.000000	99.355532  
3436.000000	99.355314  
3435.000000	99.353399  
3434.000000	99.347800  
3433.000000	99.339950  
3432.000000	99.335396  
3431.000000	99.340118  
3430.000000	99.355932  
3429.000000	99.378663  
3428.000000	99.399849  
3427.000000	99.411736  
3426.000000	99.413095  
3425.000000	99.410195  
3424.000000	99.410182  
3423.000000	99.413102  
3422.000000	99.411949  
3421.000000	99.400918  
3420.000000	99.381823  
3419.000000	99.362528  
3418.000000	99.351577  
3417.000000	99.354422  
3416.000000	99.370600  
3415.000000	99.392181  
3414.000000	99.407845  
3413.000000	99.412282  
3412.000000	99.410850  
3411.000000	99.412532  
3410.000000	99.419447  
3409.000000	99.425900  
3408.000000	99.426671  
3407.000000	99.422438  
3406.000000	99.415839  
3405.000000	99.405550  
3404.000000	99.387700  
3403.000000	99.362732  
3402.000000	99.338310  
3401.000000	99.323759  
3400.000000	99.322013  
3399.000000	99.327703  
3398.000000	99.332225  
3397.000000	99.329507  
3396.000000	99.317527  
3395.000000	99.297754  
3394.000000	99.275824  
3393.000000	99.261184  
3392.000000	99.261815  
3391.000000	99.277601  
3390.000000	99.300312  
3389.000000	99.320408  
3388.000000	99.332838  
3387.000000	99.337429  
3386.000000	99.337125  
3385.000000	99.336443  
3384.000000	99.338266  
3383.000000	99.340034  
3382.000000	99.335349  
3381.000000	99.321671  
3380.000000	99.304995  
3379.000000	99.294876  
3378.000000	99.295375  
3377.000000	99.302194  
3376.000000	99.307320  
3375.000000	99.305058  
3374.000000	99.295142  
3373.000000	99.282596  
3372.000000	99.274320  
3371.000000	99.273889  
3370.000000	99.279473  
3369.000000	99.287316  
3368.000000	99.295976  
3367.000000	99.305559  
3366.000000	99.314049  
3365.000000	99.316968  
3364.000000	99.311417  
3363.000000	99.299662  
3362.000000	99.288622  
3361.000000	99.285496  
3360.000000	99.292138  
3359.000000	99.302378  
3358.000000	99.306210  
3357.000000	99.298608  
3356.000000	99.283816  
3355.000000	99.269900  
3354.000000	99.260062  
3353.000000	99.251205  
3352.000000	99.240069  
3351.000000	99.228345  
3350.000000	99.221384  
3349.000000	99.223164  
3348.000000	99.232639  
3347.000000	99.244200  
3346.000000	99.252290  
3345.000000	99.256723  
3344.000000	99.263072  
3343.000000	99.276162  
3342.000000	99.292758  
3341.000000	99.301730  
3340.000000	99.292302  
3339.000000	99.263189  
3338.000000	99.224775  
3337.000000	99.192495  
3336.000000	99.176306  
3335.000000	99.174771  
3334.000000	99.178740  
3333.000000	99.179642  
3332.000000	99.173378  
3331.000000	99.158956  
3330.000000	99.138878  
3329.000000	99.122118  
3328.000000	99.120817  
3327.000000	99.138488  
3326.000000	99.163597  
3325.000000	99.179709  
3324.000000	99.181068  
3323.000000	99.174218  
3322.000000	99.165697  
3321.000000	99.154559  
3320.000000	99.138266  
3319.000000	99.119818  
3318.000000	99.104331  
3317.000000	99.091384  
3316.000000	99.075917  
3315.000000	99.056816  
3314.000000	99.040844  
3313.000000	99.035787  
3312.000000	99.040906  
3311.000000	99.046122  
3310.000000	99.041370  
3309.000000	99.026032  
3308.000000	99.007982  
3307.000000	98.993768  
3306.000000	98.981874  
3305.000000	98.966788  
3304.000000	98.947560  
3303.000000	98.929241  
3302.000000	98.916106  
3301.000000	98.906235  
3300.000000	98.894062  
3299.000000	98.876685  
3298.000000	98.856377  
3297.000000	98.837811  
3296.000000	98.823913  
3295.000000	98.813872  
3294.000000	98.804045  
3293.000000	98.790794  
3292.000000	98.773284  
3291.000000	98.754045  
3290.000000	98.736815  
3289.000000	98.723733  
3288.000000	98.714393  
3287.000000	98.707185  
3286.000000	98.700858  
3285.000000	98.694036  
3284.000000	98.683514  
3283.000000	98.665004  
3282.000000	98.637490  
3281.000000	98.606523  
3280.000000	98.581020  
3279.000000	98.565861  
3278.000000	98.558554  
3277.000000	98.553308  
3276.000000	98.547026  
3275.000000	98.540937  
3274.000000	98.537858  
3273.000000	98.538626  
3272.000000	98.539967  
3271.000000	98.535497  
3270.000000	98.520778  
3269.000000	98.498300  
3268.000000	98.475565  
3267.000000	98.457080  
3266.000000	98.440350  
3265.000000	98.421271  
3264.000000	98.401154  
3263.000000	98.385705  
3262.000000	98.378268  
3261.000000	98.376638  
3260.000000	98.375287  
3259.000000	98.368144  
3258.000000	98.350458  
3257.000000	98.321678  
3256.000000	98.287069  
3255.000000	98.253824  
3254.000000	98.224827  
3253.000000	98.198107  
3252.000000	98.172475  
3251.000000	98.150715  
3250.000000	98.135696  
3249.000000	98.125340  
3248.000000	98.113330  
3247.000000	98.094107  
3246.000000	98.066286  
3245.000000	98.032554  
3244.000000	97.998370  
3243.000000	97.970559  
3242.000000	97.954302  
3241.000000	97.948542  
3240.000000	97.944040  
3239.000000	97.928790  
3238.000000	97.898385  
3237.000000	97.860939  
3236.000000	97.829537  
3235.000000	97.809286  
3234.000000	97.793530  
3233.000000	97.772752  
3232.000000	97.744309  
3231.000000	97.712077  
3230.000000	97.679697  
3229.000000	97.647668  
3228.000000	97.615950  
3227.000000	97.586182  
3226.000000	97.561015  
3225.000000	97.542943  
3224.000000	97.533320  
3223.000000	97.530439  
3222.000000	97.528657  
3221.000000	97.521505  
3220.000000	97.506325  
3219.000000	97.484937  
3218.000000	97.459982  
3217.000000	97.432282  
3216.000000	97.402025  
3215.000000	97.371194  
3214.000000	97.343928  
3213.000000	97.324088  
3212.000000	97.311547  
3211.000000	97.300525  
3210.000000	97.283143  
3209.000000	97.256120  
3208.000000	97.222840  
3207.000000	97.187680  
3206.000000	97.150576  
3205.000000	97.110040  
3204.000000	97.069755  
3203.000000	97.037309  
3202.000000	97.014741  
3201.000000	96.993457  
3200.000000	96.961325  
3199.000000	96.914726  
3198.000000	96.862782  
3197.000000	96.819709  
3196.000000	96.792462  
3195.000000	96.774352  
3194.000000	96.750296  
3193.000000	96.709366  
3192.000000	96.653338  
3191.000000	96.593515  
3190.000000	96.540371  
3189.000000	96.496984  
3188.000000	96.460043  
3187.000000	96.423101  
3186.000000	96.378265  
3185.000000	96.319155  
3184.000000	96.246305  
3183.000000	96.169304  
3182.000000	96.100836  
3181.000000	96.047133  
3180.000000	96.003952  
3179.000000	95.960864  
3178.000000	95.908606  
3177.000000	95.843405  
3176.000000	95.767041  
3175.000000	95.684766  
3174.000000	95.602713  
3173.000000	95.525288  
3172.000000	95.453868  
3171.000000	95.388148  
3170.000000	95.328765  
3169.000000	95.277488  
3168.000000	95.234001  
3167.000000	95.193645  
3166.000000	95.150102  
3165.000000	95.100275  
3164.000000	95.045026  
3163.000000	94.985451  
3162.000000	94.920747  
3161.000000	94.850617  
3160.000000	94.777524  
3159.000000	94.704687  
3158.000000	94.633019  
3157.000000	94.561669  
3156.000000	94.490194  
3155.000000	94.417832  
3154.000000	94.341391  
3153.000000	94.257032  
3152.000000	94.165277  
3151.000000	94.072304  
3150.000000	93.984650  
3149.000000	93.903371  
3148.000000	93.824503  
3147.000000	93.744511  
3146.000000	93.663609  
3145.000000	93.583419  
3144.000000	93.502779  
3143.000000	93.417629  
3142.000000	93.325392  
3141.000000	93.228376  
3140.000000	93.131801  
3139.000000	93.038558  
3138.000000	92.946648  
3137.000000	92.851934  
3136.000000	92.752908  
3135.000000	92.652338  
3134.000000	92.553923  
3133.000000	92.456982  
3132.000000	92.355034  
3131.000000	92.241507  
3130.000000	92.117673  
3129.000000	91.993131  
3128.000000	91.876469  
3127.000000	91.766155  
3126.000000	91.652411  
3125.000000	91.526973  
3124.000000	91.388337  
3123.000000	91.238447  
3122.000000	91.078974  
3121.000000	90.912737  
3120.000000	90.745066  
3119.000000	90.579811  
3118.000000	90.414487  
3117.000000	90.241694  
3116.000000	90.055328  
3115.000000	89.854424  
3114.000000	89.642031  
3113.000000	89.422209  
3112.000000	89.197702  
3111.000000	88.968518  
3110.000000	88.732259  
3109.000000	88.486848  
3108.000000	88.233685  
3107.000000	87.978289  
3106.000000	87.727886  
3105.000000	87.487611  
3104.000000	87.257328  
3103.000000	87.031376  
3102.000000	86.802437  
3101.000000	86.566926  
3100.000000	86.326610  
3099.000000	86.085253  
3098.000000	85.845152  
3097.000000	85.607610  
3096.000000	85.375255  
3095.000000	85.152020  
3094.000000	84.940443  
3093.000000	84.739403  
3092.000000	84.544657  
3091.000000	84.351957  
3090.000000	84.160483  
3089.000000	83.973461  
3088.000000	83.795184  
3087.000000	83.627731  
3086.000000	83.470868  
3085.000000	83.324104  
3084.000000	83.187373  
3083.000000	83.060351  
3082.000000	82.942955  
3081.000000	82.836454  
3080.000000	82.742229  
3079.000000	82.658995  
3078.000000	82.582777  
3077.000000	82.510168  
3076.000000	82.440559  
3075.000000	82.375305  
3074.000000	82.316879  
3073.000000	82.269517  
3072.000000	82.238337  
3071.000000	82.225406  
3070.000000	82.226887  
3069.000000	82.235486  
3068.000000	82.246070  
3067.000000	82.258497  
3066.000000	82.275264  
3065.000000	82.297462  
3064.000000	82.323829  
3063.000000	82.353761  
3062.000000	82.390348  
3061.000000	82.439288  
3060.000000	82.504073  
3059.000000	82.582174  
3058.000000	82.665916  
3057.000000	82.747094  
3056.000000	82.821976  
3055.000000	82.893408  
3054.000000	82.968004  
3053.000000	83.049682  
3052.000000	83.135402  
3051.000000	83.218709  
3050.000000	83.297456  
3049.000000	83.375704  
3048.000000	83.457228  
3047.000000	83.539903  
3046.000000	83.618009  
3045.000000	83.686558  
3044.000000	83.740652  
3043.000000	83.774418  
3042.000000	83.786389  
3041.000000	83.785328  
3040.000000	83.785322  
3039.000000	83.793451  
3038.000000	83.805119  
3037.000000	83.811430  
3036.000000	83.807220  
3035.000000	83.791123  
3034.000000	83.762867  
3033.000000	83.724121  
3032.000000	83.679673  
3031.000000	83.634888  
3030.000000	83.593270  
3029.000000	83.558067  
3028.000000	83.533212  
3027.000000	83.519015  
3026.000000	83.508395  
3025.000000	83.491721  
3024.000000	83.466455  
3023.000000	83.439824  
3022.000000	83.421056  
3021.000000	83.412727  
3020.000000	83.410136  
3019.000000	83.407301  
3018.000000	83.402067  
3017.000000	83.396404  
3016.000000	83.393607  
3015.000000	83.395619  
3014.000000	83.402048  
3013.000000	83.410948  
3012.000000	83.420823  
3011.000000	83.432147  
3010.000000	83.446124  
3009.000000	83.460902  
3008.000000	83.469534  
3007.000000	83.463025  
3006.000000	83.434989  
3005.000000	83.381416  
3004.000000	83.297363  
3003.000000	83.180638  
3002.000000	83.044556  
3001.000000	82.925220  
3000.000000	82.867858  
2999.000000	82.899313  
2998.000000	83.010228  
2997.000000	83.160995  
2996.000000	83.300493  
2995.000000	83.380622  
2994.000000	83.363437  
2993.000000	83.229303  
2992.000000	82.989145  
2991.000000	82.689914  
2990.000000	82.402117  
2989.000000	82.190877  
2988.000000	82.088631  
2987.000000	82.089767  
2986.000000	82.168592  
2985.000000	82.301453  
2984.000000	82.473247  
2983.000000	82.670349  
2982.000000	82.875992  
2981.000000	83.075127  
2980.000000	83.260488  
2979.000000	83.430960  
2978.000000	83.585693  
2977.000000	83.722067  
2976.000000	83.838566  
2975.000000	83.937750  
2974.000000	84.026839  
2973.000000	84.117692  
2972.000000	84.226439  
2971.000000	84.369870  
2970.000000	84.556799  
2969.000000	84.778952  
2968.000000	85.010755  
2967.000000	85.222399  
2966.000000	85.397852  
2965.000000	85.541805  
2964.000000	85.669440  
2963.000000	85.790187  
2962.000000	85.901197  
2961.000000	85.993692  
2960.000000	86.061820  
2959.000000	86.105516  
2958.000000	86.127805  
2957.000000	86.130563  
2956.000000	86.111270  
2955.000000	86.063158  
2954.000000	85.980542  
2953.000000	85.865564  
2952.000000	85.729166  
2951.000000	85.585229  
2950.000000	85.444841  
2949.000000	85.315088  
2948.000000	85.199158  
2947.000000	85.094400  
2946.000000	84.992211  
2945.000000	84.884251  
2944.000000	84.770795  
2943.000000	84.661844  
2942.000000	84.568924  
2941.000000	84.496237  
2940.000000	84.440253  
2939.000000	84.396467  
2938.000000	84.364549  
2937.000000	84.346758  
2936.000000	84.343853  
2935.000000	84.354365  
2934.000000	84.376489  
2933.000000	84.408096  
2932.000000	84.445694  
2931.000000	84.486581  
2930.000000	84.532599  
2929.000000	84.588757  
2928.000000	84.656837  
2927.000000	84.732984  
2926.000000	84.812999  
2925.000000	84.896962  
2924.000000	84.986164  
2923.000000	85.078307  
2922.000000	85.169161  
2921.000000	85.257217  
2920.000000	85.343278  
2919.000000	85.426879  
2918.000000	85.506869  
2917.000000	85.585019  
2916.000000	85.665307  
2915.000000	85.749062  
2914.000000	85.833467  
2913.000000	85.915352  
2912.000000	85.994143  
2911.000000	86.070481  
2910.000000	86.144087  
2909.000000	86.213824  
2908.000000	86.278665  
2907.000000	86.338309  
2906.000000	86.393980  
2905.000000	86.448241  
2904.000000	86.502325  
2903.000000	86.553611  
2902.000000	86.597129  
2901.000000	86.629507  
2900.000000	86.651050  
2899.000000	86.665052  
2898.000000	86.676754  
2897.000000	86.690944  
2896.000000	86.707639  
2895.000000	86.721138  
2894.000000	86.726109  
2893.000000	86.723875  
2892.000000	86.719874  
2891.000000	86.716742  
2890.000000	86.714121  
2889.000000	86.713986  
2888.000000	86.720165  
2887.000000	86.731502  
2886.000000	86.741127  
2885.000000	86.745228  
2884.000000	86.748443  
2883.000000	86.757783  
2882.000000	86.774883  
2881.000000	86.797197  
2880.000000	86.823173  
2879.000000	86.852112  
2878.000000	86.881284  
2877.000000	86.907714  
2876.000000	86.931914  
2875.000000	86.956147  
2874.000000	86.979479  
2873.000000	86.998033  
2872.000000	87.010312  
2871.000000	87.019210  
2870.000000	87.027869  
2869.000000	87.035899  
2868.000000	87.041042  
2867.000000	87.043274  
2866.000000	87.045833  
2865.000000	87.051980  
2864.000000	87.060963  
2863.000000	87.067616  
2862.000000	87.066760  
2861.000000	87.057973  
2860.000000	87.045131  
2859.000000	87.031618  
2858.000000	87.018030  
2857.000000	87.004910  
2856.000000	86.994743  
2855.000000	86.989183  
2854.000000	86.986284  
2853.000000	86.983116  
2852.000000	86.980119  
2851.000000	86.979967  
2850.000000	86.981962  
2849.000000	86.980297  
2848.000000	86.969681  
2847.000000	86.951812  
2846.000000	86.934675  
2845.000000	86.924902  
2844.000000	86.921133  
2843.000000	86.915415  
2842.000000	86.901028  
2841.000000	86.878301  
2840.000000	86.852678  
2839.000000	86.828526  
2838.000000	86.806128  
2837.000000	86.783350  
2836.000000	86.757455  
2835.000000	86.724934  
2834.000000	86.682183  
2833.000000	86.627953  
2832.000000	86.564270  
2831.000000	86.494282  
2830.000000	86.420398  
2829.000000	86.344676  
2828.000000	86.268911  
2827.000000	86.193038  
2826.000000	86.115146  
2825.000000	86.034572  
2824.000000	85.953632  
2823.000000	85.874673  
2822.000000	85.796606  
2821.000000	85.716624  
2820.000000	85.635144  
2819.000000	85.557082  
2818.000000	85.487807  
2817.000000	85.428952  
2816.000000	85.378672  
2815.000000	85.334869  
2814.000000	85.297105  
2813.000000	85.265636  
2812.000000	85.239860  
2811.000000	85.218782  
2810.000000	85.202825  
2809.000000	85.193986  
2808.000000	85.193684  
2807.000000	85.201518  
2806.000000	85.217083  
2805.000000	85.241917  
2804.000000	85.277947  
2803.000000	85.324253  
2802.000000	85.376606  
2801.000000	85.429776  
2800.000000	85.478722  
2799.000000	85.518173  
2798.000000	85.543826  
2797.000000	85.555060  
2796.000000	85.555230  
2795.000000	85.548634  
2794.000000	85.538310  
2793.000000	85.526337  
2792.000000	85.513438  
2791.000000	85.497088  
2790.000000	85.472600  
2789.000000	85.438477  
2788.000000	85.399543  
2787.000000	85.362904  
2786.000000	85.331995  
2785.000000	85.306613  
2784.000000	85.287403  
2783.000000	85.276820  
2782.000000	85.274876  
2781.000000	85.276777  
2780.000000	85.277140  
2779.000000	85.275748  
2778.000000	85.277457  
2777.000000	85.286523  
2776.000000	85.302603  
2775.000000	85.322634  
2774.000000	85.344963  
2773.000000	85.369933  
2772.000000	85.396949  
2771.000000	85.423099  
2770.000000	85.445714  
2769.000000	85.465374  
2768.000000	85.485254  
2767.000000	85.507828  
2766.000000	85.532902  
2765.000000	85.558364  
2764.000000	85.581860  
2763.000000	85.601664  
2762.000000	85.616516  
2761.000000	85.624938  
2760.000000	85.625250  
2759.000000	85.617278  
2758.000000	85.604037  
2757.000000	85.590019  
2756.000000	85.576662  
2755.000000	85.560577  
2754.000000	85.537420  
2753.000000	85.506534  
2752.000000	85.470977  
2751.000000	85.434676  
2750.000000	85.401305  
2749.000000	85.373920  
2748.000000	85.352489  
2747.000000	85.332270  
2746.000000	85.307668  
2745.000000	85.277808  
2744.000000	85.245835  
2743.000000	85.212775  
2742.000000	85.175270  
2741.000000	85.130025  
2740.000000	85.077261  
2739.000000	85.018210  
2738.000000	84.952318  
2737.000000	84.879907  
2736.000000	84.806052  
2735.000000	84.738578  
2734.000000	84.681811  
2733.000000	84.633980  
2732.000000	84.591334  
2731.000000	84.554186  
2730.000000	84.528585  
2729.000000	84.522102  
2728.000000	84.537375  
2727.000000	84.569329  
2726.000000	84.609043  
2725.000000	84.650979  
2724.000000	84.697106  
2723.000000	84.754538  
2722.000000	84.829459  
2721.000000	84.922206  
2720.000000	85.026841  
2719.000000	85.135357  
2718.000000	85.243259  
2717.000000	85.351463  
2716.000000	85.463186  
2715.000000	85.580153  
2714.000000	85.702553  
2713.000000	85.830639  
2712.000000	85.963678  
2711.000000	86.097837  
2710.000000	86.228236  
2709.000000	86.354036  
2708.000000	86.479617  
2707.000000	86.610064  
2706.000000	86.747229  
2705.000000	86.890335  
2704.000000	87.037520  
2703.000000	87.185259  
2702.000000	87.328849  
2701.000000	87.466064  
2700.000000	87.598978  
2699.000000	87.729978  
2698.000000	87.857187  
2697.000000	87.976413  
2696.000000	88.087148  
2695.000000	88.194145  
2694.000000	88.302699  
2693.000000	88.414179  
2692.000000	88.526528  
2691.000000	88.637626  
2690.000000	88.747618  
2689.000000	88.859088  
2688.000000	88.975339  
2687.000000	89.097448  
2686.000000	89.222447  
2685.000000	89.345169  
2684.000000	89.462484  
2683.000000	89.575515  
2682.000000	89.687725  
2681.000000	89.801488  
2680.000000	89.916351  
2679.000000	90.029166  
2678.000000	90.134888  
2677.000000	90.228113  
2676.000000	90.305766  
2675.000000	90.369162  
2674.000000	90.422579  
2673.000000	90.468676  
2672.000000	90.505223  
2671.000000	90.527028  
2670.000000	90.530906  
2669.000000	90.517887  
2668.000000	90.490756  
2667.000000	90.451311  
2666.000000	90.400887  
2665.000000	90.341739  
2664.000000	90.275946  
2663.000000	90.203936  
2662.000000	90.126232  
2661.000000	90.046504  
2660.000000	89.971054  
2659.000000	89.905085  
2658.000000	89.850492  
2657.000000	89.806688  
2656.000000	89.772008  
2655.000000	89.744871  
2654.000000	89.725560  
2653.000000	89.716617  
2652.000000	89.719542  
2651.000000	89.731180  
2650.000000	89.745177  
2649.000000	89.756701  
2648.000000	89.763592  
2647.000000	89.763487  
2646.000000	89.753181  
2645.000000	89.731914  
2644.000000	89.702694  
2643.000000	89.668797  
2642.000000	89.630048  
2641.000000	89.582686  
2640.000000	89.520955  
2639.000000	89.438928  
2638.000000	89.333766  
2637.000000	89.208213  
2636.000000	89.067614  
2635.000000	88.913901  
2634.000000	88.745139  
2633.000000	88.561580  
2632.000000	88.368908  
2631.000000	88.174098  
2630.000000	87.981143  
2629.000000	87.792543  
2628.000000	87.611960  
2627.000000	87.442677  
2626.000000	87.284955  
2625.000000	87.136465  
2624.000000	86.993702  
2623.000000	86.852369  
2622.000000	86.709708  
2621.000000	86.568870  
2620.000000	86.438438  
2619.000000	86.324407  
2618.000000	86.223616  
2617.000000	86.127327  
2616.000000	86.030230  
2615.000000	85.933590  
2614.000000	85.840197  
2613.000000	85.748773  
2612.000000	85.654280  
2611.000000	85.553128  
2610.000000	85.447629  
2609.000000	85.344749  
2608.000000	85.249791  
2607.000000	85.162227  
2606.000000	85.079539  
2605.000000	85.004257  
2604.000000	84.943599  
2603.000000	84.901094  
2602.000000	84.871562  
2601.000000	84.846299  
2600.000000	84.821190  
2599.000000	84.797836  
2598.000000	84.778899  
2597.000000	84.765599  
2596.000000	84.759574  
2595.000000	84.764759  
2594.000000	84.786580  
2593.000000	84.829817  
2592.000000	84.896935  
2591.000000	84.987445  
2590.000000	85.098427  
2589.000000	85.225887  
2588.000000	85.366031  
2587.000000	85.516286  
2586.000000	85.676293  
2585.000000	85.847821  
2584.000000	86.032364  
2583.000000	86.228042  
2582.000000	86.429068  
2581.000000	86.628139  
2580.000000	86.819093  
2579.000000	86.998476  
2578.000000	87.166570  
2577.000000	87.327048  
2576.000000	87.483810  
2575.000000	87.637360  
2574.000000	87.784785  
2573.000000	87.922429  
2572.000000	88.046824  
2571.000000	88.154369  
2570.000000	88.244145  
2569.000000	88.322227  
2568.000000	88.400146  
2567.000000	88.486895  
2566.000000	88.583205  
2565.000000	88.683194  
2564.000000	88.779071  
2563.000000	88.864790  
2562.000000	88.939477  
2561.000000	89.009111  
2560.000000	89.081960  
2559.000000	89.161213  
2558.000000	89.244834  
2557.000000	89.332219  
2556.000000	89.425311  
2555.000000	89.521663  
2554.000000	89.613459  
2553.000000	89.698335  
2552.000000	89.785571  
2551.000000	89.884452  
2550.000000	89.989323  
2549.000000	90.083257  
2548.000000	90.155934  
2547.000000	90.212150  
2546.000000	90.262986  
2545.000000	90.314654  
2544.000000	90.367072  
2543.000000	90.417672  
2542.000000	90.463080  
2541.000000	90.499394  
2540.000000	90.523611  
2539.000000	90.535114  
2538.000000	90.536300  
2537.000000	90.532594  
2536.000000	90.530187  
2535.000000	90.531550  
2534.000000	90.534261  
2533.000000	90.536102  
2532.000000	90.539118  
2531.000000	90.545360  
2530.000000	90.550791  
2529.000000	90.548790  
2528.000000	90.540087  
2527.000000	90.534220  
2526.000000	90.538563  
2525.000000	90.548505  
2524.000000	90.550532  
2523.000000	90.533657  
2522.000000	90.496759  
2521.000000	90.446689  
2520.000000	90.391296  
2519.000000	90.334014  
2518.000000	90.274077  
2517.000000	90.211337  
2516.000000	90.150011  
2515.000000	90.096532  
2514.000000	90.053590  
2513.000000	90.017004  
2512.000000	89.978869  
2511.000000	89.933900  
2510.000000	89.883436  
2509.000000	89.834223  
2508.000000	89.793610  
2507.000000	89.765802  
2506.000000	89.752366  
2505.000000	89.755033  
2504.000000	89.776208  
2503.000000	89.816494  
2502.000000	89.873500  
2501.000000	89.944562  
2500.000000	90.030318  
2499.000000	90.134299  
2498.000000	90.257926  
2497.000000	90.395447  
2496.000000	90.534401  
2495.000000	90.663308  
2494.000000	90.780627  
2493.000000	90.895068  
2492.000000	91.014912  
2491.000000	91.137516  
2490.000000	91.251536  
2489.000000	91.349006  
2488.000000	91.432157  
2487.000000	91.508583  
2486.000000	91.583964  
2485.000000	91.660841  
2484.000000	91.739810  
2483.000000	91.818148  
2482.000000	91.889776  
2481.000000	91.950041  
2480.000000	91.999177  
2479.000000	92.038889  
2478.000000	92.068195  
2477.000000	92.085936  
2476.000000	92.094945  
2475.000000	92.099225  
2474.000000	92.098084  
2473.000000	92.087566  
2472.000000	92.068263  
2471.000000	92.048551  
2470.000000	92.039683  
2469.000000	92.049870  
2468.000000	92.082310  
2467.000000	92.134800  
2466.000000	92.199555  
2465.000000	92.266183  
2464.000000	92.327748  
2463.000000	92.384121  
2462.000000	92.439469  
2461.000000	92.497777  
2460.000000	92.561010  
2459.000000	92.629471  
2458.000000	92.702171  
2457.000000	92.777087  
2456.000000	92.851609  
2455.000000	92.922303  
2454.000000	92.984495  
2453.000000	93.034212  
2452.000000	93.072727  
2451.000000	93.109238  
2450.000000	93.156958  
2449.000000	93.223901  
2448.000000	93.305480  
2447.000000	93.386151  
2446.000000	93.449828  
2445.000000	93.490834  
2444.000000	93.516527  
2443.000000	93.540390  
2442.000000	93.572115  
2441.000000	93.611506  
2440.000000	93.649151  
2439.000000	93.673733  
2438.000000	93.682294  
2437.000000	93.684801  
2436.000000	93.696422  
2435.000000	93.723322  
2434.000000	93.757448  
2433.000000	93.786517  
2432.000000	93.807455  
2431.000000	93.827491  
2430.000000	93.852847  
2429.000000	93.879625  
2428.000000	93.897730  
2427.000000	93.902516  
2426.000000	93.900493  
2425.000000	93.902980  
2424.000000	93.915419  
2423.000000	93.934088  
2422.000000	93.952150  
2421.000000	93.966351  
2420.000000	93.977591  
2419.000000	93.988228  
2418.000000	94.001032  
2417.000000	94.018717  
2416.000000	94.041921  
2415.000000	94.068962  
2414.000000	94.099636  
2413.000000	94.136996  
2412.000000	94.182151  
2411.000000	94.229608  
2410.000000	94.272878  
2409.000000	94.314141  
2408.000000	94.362458  
2407.000000	94.420381  
2406.000000	94.477250  
2405.000000	94.519515  
2404.000000	94.545110  
2403.000000	94.564347  
2402.000000	94.588155  
2401.000000	94.618593  
2400.000000	94.649777  
2399.000000	94.674496  
2398.000000	94.688686  
2397.000000	94.691733  
2396.000000	94.685666  
2395.000000	94.675427  
2394.000000	94.668051  
2393.000000	94.668217  
2392.000000	94.673588  
2391.000000	94.677115  
2390.000000	94.675999  
2389.000000	94.676379  
2388.000000	94.686950  
2387.000000	94.710090  
2386.000000	94.742263  
2385.000000	94.781232  
2384.000000	94.828548  
2383.000000	94.884951  
2382.000000	94.947597  
2381.000000	95.013618  
2380.000000	95.083363  
2379.000000	95.157742  
2378.000000	95.233455  
2377.000000	95.300743  
2376.000000	95.346646  
2375.000000	95.363033  
2374.000000	95.357346  
2373.000000	95.352502  
2372.000000	95.367362  
2371.000000	95.398662  
2370.000000	95.430217  
2369.000000	95.455309  
2368.000000	95.476815  
2367.000000	95.490848  
2366.000000	95.491325  
2365.000000	95.489338  
2364.000000	95.511339  
2363.000000	95.569561  
2362.000000	95.638165  
2361.000000	95.686473  
2360.000000	95.710075  
2359.000000	95.715163  
2358.000000	95.713314  
2357.000000	95.716051  
2356.000000	95.739177  
2355.000000	95.793082  
2354.000000	95.862414  
2353.000000	95.910720  
2352.000000	95.896311  
2351.000000	95.825955  
2350.000000	95.755717  
2349.000000	95.741812  
2348.000000	95.805284  
2347.000000	95.898369  
2346.000000	95.951477  
2345.000000	95.934774  
2344.000000	95.887075  
2343.000000	95.864053  
2342.000000	95.873015  
2341.000000	95.900335  
2340.000000	95.921808  
2339.000000	95.927128  
2338.000000	95.919846  
2337.000000	95.912137  
2336.000000	95.905970  
2335.000000	95.897973  
2334.000000	95.891818  
2333.000000	95.904474  
2332.000000	95.935850  
2331.000000	95.964620  
2330.000000	95.964940  
2329.000000	95.922771  
2328.000000	95.855037  
2327.000000	95.771095  
2326.000000	95.690328  
2325.000000	95.628198  
2324.000000	95.601861  
2323.000000	95.611031  
2322.000000	95.630451  
2321.000000	95.645300  
2320.000000	95.656329  
2319.000000	95.677538  
2318.000000	95.709171  
2317.000000	95.749058  
2316.000000	95.795807  
2315.000000	95.844201  
2314.000000	95.879467  
2313.000000	95.883341  
2312.000000	95.852833  
2311.000000	95.797769  
2310.000000	95.738223  
2309.000000	95.687927  
2308.000000	95.653648  
2307.000000	95.627263  
2306.000000	95.597337  
2305.000000	95.555524  
2304.000000	95.503054  
2303.000000	95.444426  
2302.000000	95.387236  
2301.000000	95.340944  
2300.000000	95.312576  
2299.000000	95.294927  
2298.000000	95.274036  
2297.000000	95.243283  
2296.000000	95.213259  
2295.000000	95.195206  
2294.000000	95.191103  
2293.000000	95.192271  
2292.000000	95.190938  
2291.000000	95.183427  
2290.000000	95.174656  
2289.000000	95.177923  
2288.000000	95.207214  
2287.000000	95.263989  
2286.000000	95.336163  
2285.000000	95.410811  
2284.000000	95.481729  
2283.000000	95.545719  
2282.000000	95.600081  
2281.000000	95.648388  
2280.000000	95.697530  
2279.000000	95.746514  
2278.000000	95.786905  
2277.000000	95.820121  
2276.000000	95.859912  
2275.000000	95.910955  
2274.000000	95.957787  
2273.000000	95.985192  
2272.000000	96.000086  
2271.000000	96.020470  
2270.000000	96.052233  
2269.000000	96.087968  
2268.000000	96.121312  
2267.000000	96.149197  
2266.000000	96.164721  
2265.000000	96.161117  
2264.000000	96.142320  
2263.000000	96.118566  
2262.000000	96.092827  
2261.000000	96.057851  
2260.000000	96.007981  
2259.000000	95.950731  
2258.000000	95.905984  
2257.000000	95.892418  
2256.000000	95.906685  
2255.000000	95.917974  
2254.000000	95.892168  
2253.000000	95.825124  
2252.000000	95.744545  
2251.000000	95.680228  
2250.000000	95.643986  
2249.000000	95.635388  
2248.000000	95.649872  
2247.000000	95.676227  
2246.000000	95.702138  
2245.000000	95.728874  
2244.000000	95.768425  
2243.000000	95.821383  
2242.000000	95.873524  
2241.000000	95.920399  
2240.000000	95.978116  
2239.000000	96.059306  
2238.000000	96.153166  
2237.000000	96.239290  
2236.000000	96.306371  
2235.000000	96.347452  
2234.000000	96.355380  
2233.000000	96.339425  
2232.000000	96.330754  
2231.000000	96.353102  
2230.000000	96.398424  
2229.000000	96.445107  
2228.000000	96.487378  
2227.000000	96.530688  
2226.000000	96.570328  
2225.000000	96.594088  
2224.000000	96.599767  
2223.000000	96.595388  
2222.000000	96.588688  
2221.000000	96.587115  
2220.000000	96.597800  
2219.000000	96.616327  
2218.000000	96.627817  
2217.000000	96.630922  
2216.000000	96.646725  
2215.000000	96.689494  
2214.000000	96.742994  
2213.000000	96.782129  
2212.000000	96.805068  
2211.000000	96.826209  
2210.000000	96.849468  
2209.000000	96.867681  
2208.000000	96.878834  
2207.000000	96.884660  
2206.000000	96.880907  
2205.000000	96.865859  
2204.000000	96.852032  
2203.000000	96.855256  
2202.000000	96.878056  
2201.000000	96.912192  
2200.000000	96.946501  
2199.000000	96.964551  
2198.000000	96.951286  
2197.000000	96.914664  
2196.000000	96.883987  
2195.000000	96.873452  
2194.000000	96.865209  
2193.000000	96.840647  
2192.000000	96.806626  
2191.000000	96.775246  
2190.000000	96.743511  
2189.000000	96.714899  
2188.000000	96.714335  
2187.000000	96.751319  
2186.000000	96.789645  
2185.000000	96.788598  
2184.000000	96.760944  
2183.000000	96.754653  
2182.000000	96.786457  
2181.000000	96.827573  
2180.000000	96.848507  
2179.000000	96.843506  
2178.000000	96.813628  
2177.000000	96.758768  
2176.000000	96.689794  
2175.000000	96.625468  
2174.000000	96.575343  
2173.000000	96.539655  
2172.000000	96.518968  
2171.000000	96.508474  
2170.000000	96.492159  
2169.000000	96.459175  
2168.000000	96.416629  
2167.000000	96.370046  
2166.000000	96.304966  
2165.000000	96.210753  
2164.000000	96.113447  
2163.000000	96.062906  
2162.000000	96.095069  
2161.000000	96.219161  
2160.000000	96.419507  
2159.000000	96.645362  
2158.000000	96.820613  
2157.000000	96.896716  
2156.000000	96.883151  
2155.000000	96.814475  
2154.000000	96.717429  
2153.000000	96.618176  
2152.000000	96.544811  
2151.000000	96.501316  
2150.000000	96.462712  
2149.000000	96.415015  
2148.000000	96.379043  
2147.000000	96.375659  
2146.000000	96.390497  
2145.000000	96.395701  
2144.000000	96.385790  
2143.000000	96.367440  
2142.000000	96.332949  
2141.000000	96.271563  
2140.000000	96.194325  
2139.000000	96.123235  
2138.000000	96.065626  
2137.000000	96.018038  
2136.000000	95.981910  
2135.000000	95.953881  
2134.000000	95.911615  
2133.000000	95.831435  
2132.000000	95.712931  
2131.000000	95.569810  
2130.000000	95.407596  
2129.000000	95.227191  
2128.000000	95.039491  
2127.000000	94.857667  
2126.000000	94.680711  
2125.000000	94.499347  
2124.000000	94.311940  
2123.000000	94.120459  
2122.000000	93.918956  
2121.000000	93.704868  
2120.000000	93.497883  
2119.000000	93.327100  
2118.000000	93.196228  
2117.000000	93.077033  
2116.000000	92.944170  
2115.000000	92.806102  
2114.000000	92.693982  
2113.000000	92.627385  
2112.000000	92.599576  
2111.000000	92.593600  
2110.000000	92.603133  
2109.000000	92.633147  
2108.000000	92.685192  
2107.000000	92.751218  
2106.000000	92.825482  
2105.000000	92.914901  
2104.000000	93.027036  
2103.000000	93.150052  
2102.000000	93.258492  
2101.000000	93.343612  
2100.000000	93.426253  
2099.000000	93.532719  
2098.000000	93.669074  
2097.000000	93.825843  
2096.000000	93.992660  
2095.000000	94.154273  
2094.000000	94.285565  
2093.000000	94.371616  
2092.000000	94.427575  
2091.000000	94.481120  
2090.000000	94.538661  
2089.000000	94.584043  
2088.000000	94.607957  
2087.000000	94.621757  
2086.000000	94.640739  
2085.000000	94.668515  
2084.000000	94.701767  
2083.000000	94.739692  
2082.000000	94.783477  
2081.000000	94.831555  
2080.000000	94.877176  
2079.000000	94.908153  
2078.000000	94.913261  
2077.000000	94.895294  
2076.000000	94.873437  
2075.000000	94.866434  
2074.000000	94.879288  
2073.000000	94.911610  
2072.000000	94.967587  
2071.000000	95.045331  
2070.000000	95.125130  
2069.000000	95.184555  
2068.000000	95.223769  
2067.000000	95.263509  
2066.000000	95.320318  
2065.000000	95.393249  
2064.000000	95.470011  
2063.000000	95.536079  
2062.000000	95.582868  
2061.000000	95.617176  
2060.000000	95.656397  
2059.000000	95.705691  
2058.000000	95.750718  
2057.000000	95.783488  
2056.000000	95.819543  
2055.000000	95.871578  
2054.000000	95.921135  
2053.000000	95.942115  
2052.000000	95.944105  
2051.000000	95.966277  
2050.000000	96.030680  
2049.000000	96.121786  
2048.000000	96.213043  
2047.000000	96.291733  
2046.000000	96.353027  
2045.000000	96.394527  
2044.000000	96.423037  
2043.000000	96.445588  
2042.000000	96.451593  
2041.000000	96.424286  
2040.000000	96.369830  
2039.000000	96.313364  
2038.000000	96.267829  
2037.000000	96.228630  
2036.000000	96.197597  
2035.000000	96.188982  
2034.000000	96.207730  
2033.000000	96.240047  
2032.000000	96.269493  
2031.000000	96.289549  
2030.000000	96.303086  
2029.000000	96.323841  
2028.000000	96.370351  
2027.000000	96.441680  
2026.000000	96.510017  
2025.000000	96.557642  
2024.000000	96.610946  
2023.000000	96.709995  
2022.000000	96.849099  
2021.000000	96.973014  
2020.000000	97.033262  
2019.000000	97.029106  
2018.000000	96.996212  
2017.000000	96.976682  
2016.000000	96.996161  
2015.000000	97.050217  
2014.000000	97.110900  
2013.000000	97.153558  
2012.000000	97.173956  
2011.000000	97.177637  
2010.000000	97.172439  
2009.000000	97.185560  
2008.000000	97.260963  
2007.000000	97.406430  
2006.000000	97.556713  
2005.000000	97.623849  
2004.000000	97.584164  
2003.000000	97.493635  
2002.000000	97.427517  
2001.000000	97.422688  
2000.000000	97.462438  
1999.000000	97.495899  
1998.000000	97.477654  
1997.000000	97.407839  
1996.000000	97.332796  
1995.000000	97.296674  
1994.000000	97.302451  
1993.000000	97.327257  
1992.000000	97.357577  
1991.000000	97.390486  
1990.000000	97.412770  
1989.000000	97.406187  
1988.000000	97.371066  
1987.000000	97.325113  
1986.000000	97.280732  
1985.000000	97.238256  
1984.000000	97.197890  
1983.000000	97.164995  
1982.000000	97.147779  
1981.000000	97.159476  
1980.000000	97.214472  
1979.000000	97.309423  
1978.000000	97.415043  
1977.000000	97.500947  
1976.000000	97.559169  
1975.000000	97.591029  
1974.000000	97.592218  
1973.000000	97.569114  
1972.000000	97.548174  
1971.000000	97.548479  
1970.000000	97.560627  
1969.000000	97.566305  
1968.000000	97.560910  
1967.000000	97.544135  
1966.000000	97.510069  
1965.000000	97.465339  
1964.000000	97.437403  
1963.000000	97.446387  
1962.000000	97.482516  
1961.000000	97.522903  
1960.000000	97.556334  
1959.000000	97.581219  
1958.000000	97.598284  
1957.000000	97.618787  
1956.000000	97.659360  
1955.000000	97.713682  
1954.000000	97.747356  
1953.000000	97.737499  
1952.000000	97.702423  
1951.000000	97.676956  
1950.000000	97.674587  
1949.000000	97.686964  
1948.000000	97.704633  
1947.000000	97.723562  
1946.000000	97.743021  
1945.000000	97.767968  
1944.000000	97.800493  
1943.000000	97.822465  
1942.000000	97.808932  
1941.000000	97.769945  
1940.000000	97.750006  
1939.000000	97.774095  
1938.000000	97.819600  
1937.000000	97.851305  
1936.000000	97.863704  
1935.000000	97.871853  
1934.000000	97.879199  
1933.000000	97.878050  
1932.000000	97.869194  
1931.000000	97.861199  
1930.000000	97.860419  
1929.000000	97.873761  
1928.000000	97.908731  
1927.000000	97.957232  
1926.000000	97.993155  
1925.000000	98.000346  
1924.000000	97.989761  
1923.000000	97.979307  
1922.000000	97.971461  
1921.000000	97.965193  
1920.000000	97.970340  
1919.000000	97.990519  
1918.000000	98.006517  
1917.000000	97.999900  
1916.000000	97.981512  
1915.000000	97.973215  
1914.000000	97.978440  
1913.000000	97.989027  
1912.000000	98.004552  
1911.000000	98.025542  
1910.000000	98.038204  
1909.000000	98.028255  
1908.000000	98.005643  
1907.000000	97.993848  
1906.000000	98.000264  
1905.000000	98.014694  
1904.000000	98.028261  
1903.000000	98.039274  
1902.000000	98.044364  
1901.000000	98.038843  
1900.000000	98.024626  
1899.000000	98.007613  
1898.000000	97.992145  
1897.000000	97.985938  
1896.000000	97.998977  
1895.000000	98.027625  
1894.000000	98.050907  
1893.000000	98.055219  
1892.000000	98.051267  
1891.000000	98.055779  
1890.000000	98.069061  
1889.000000	98.082580  
1888.000000	98.097556  
1887.000000	98.118721  
1886.000000	98.140553  
1885.000000	98.155943  
1884.000000	98.169072  
1883.000000	98.185307  
1882.000000	98.197324  
1881.000000	98.196125  
1880.000000	98.188047  
1879.000000	98.185687  
1878.000000	98.189791  
1877.000000	98.194682  
1876.000000	98.202394  
1875.000000	98.217160  
1874.000000	98.234632  
1873.000000	98.249385  
1872.000000	98.264211  
1871.000000	98.279111  
1870.000000	98.280599  
1869.000000	98.259673  
1868.000000	98.233121  
1867.000000	98.222715  
1866.000000	98.226010  
1865.000000	98.228633  
1864.000000	98.228017  
1863.000000	98.228637  
1862.000000	98.225757  
1861.000000	98.211610  
1860.000000	98.191819  
1859.000000	98.178787  
1858.000000	98.173492  
1857.000000	98.168652  
1856.000000	98.163814  
1855.000000	98.162315  
1854.000000	98.159931  
1853.000000	98.150949  
1852.000000	98.140808  
1851.000000	98.138871  
1850.000000	98.142114  
1849.000000	98.141525  
1848.000000	98.137610  
1847.000000	98.135912  
1846.000000	98.131421  
1845.000000	98.112999  
1844.000000	98.083580  
1843.000000	98.059120  
1842.000000	98.047106  
1841.000000	98.044788  
1840.000000	98.050836  
1839.000000	98.064673  
1838.000000	98.081767  
1837.000000	98.099290  
1836.000000	98.119664  
1835.000000	98.142274  
1834.000000	98.160047  
1833.000000	98.171924  
1832.000000	98.188257  
1831.000000	98.213961  
1830.000000	98.235942  
1829.000000	98.244789  
1828.000000	98.253912  
1827.000000	98.276695  
1826.000000	98.302941  
1825.000000	98.313618  
1824.000000	98.308395  
1823.000000	98.299621  
1822.000000	98.290451  
1821.000000	98.281847  
1820.000000	98.288058  
1819.000000	98.320857  
1818.000000	98.364273  
1817.000000	98.386808  
1816.000000	98.376936  
1815.000000	98.349723  
1814.000000	98.321403  
1813.000000	98.297961  
1812.000000	98.283975  
1811.000000	98.280959  
1810.000000	98.278367  
1809.000000	98.261978  
1808.000000	98.232348  
1807.000000	98.202965  
1806.000000	98.183181  
1805.000000	98.173499  
1804.000000	98.171386  
1803.000000	98.171368  
1802.000000	98.163995  
1801.000000	98.147464  
1800.000000	98.135839  
1799.000000	98.138141  
1798.000000	98.140675  
1797.000000	98.124866  
1796.000000	98.093973  
1795.000000	98.067577  
1794.000000	98.056384  
1793.000000	98.054947  
1792.000000	98.054731  
1791.000000	98.049006  
1790.000000	98.029850  
1789.000000	97.996811  
1788.000000	97.964518  
1787.000000	97.949130  
1786.000000	97.949585  
1785.000000	97.951276  
1784.000000	97.946709  
1783.000000	97.938745  
1782.000000	97.924160  
1781.000000	97.894116  
1780.000000	97.853750  
1779.000000	97.817882  
1778.000000	97.789036  
1777.000000	97.755350  
1776.000000	97.709745  
1775.000000	97.655404  
1774.000000	97.592561  
1773.000000	97.518792  
1772.000000	97.444955  
1771.000000	97.387287  
1770.000000	97.342215  
1769.000000	97.291684  
1768.000000	97.224594  
1767.000000	97.144135  
1766.000000	97.057578  
1765.000000	96.967942  
1764.000000	96.875927  
1763.000000	96.781295  
1762.000000	96.685288  
1761.000000	96.596722  
1760.000000	96.526976  
1759.000000	96.470336  
1758.000000	96.401575  
1757.000000	96.300475  
1756.000000	96.180781  
1755.000000	96.074285  
1754.000000	95.993001  
1753.000000	95.929908  
1752.000000	95.879783  
1751.000000	95.839545  
1750.000000	95.796998  
1749.000000	95.742065  
1748.000000	95.681982  
1747.000000	95.632353  
1746.000000	95.598346  
1745.000000	95.576698  
1744.000000	95.565245  
1743.000000	95.558486  
1742.000000	95.548186  
1741.000000	95.539789  
1740.000000	95.556428  
1739.000000	95.611048  
1738.000000	95.692688  
1737.000000	95.800308  
1736.000000	95.967527  
1735.000000	96.226729  
1734.000000	96.527925  
1733.000000	96.762715  
1732.000000	96.909365  
1731.000000	97.017405  
1730.000000	97.119776  
1729.000000	97.226049  
1728.000000	97.346491  
1727.000000	97.488692  
1726.000000	97.641470  
1725.000000	97.783246  
1724.000000	97.900137  
1723.000000	97.984932  
1722.000000	98.033870  
1721.000000	98.055841  
1720.000000	98.074443  
1719.000000	98.104352  
1718.000000	98.128968  
1717.000000	98.126409  
1716.000000	98.113037  
1715.000000	98.114902  
1714.000000	98.128472  
1713.000000	98.141418  
1712.000000	98.159133  
1711.000000	98.190109  
1710.000000	98.223483  
1709.000000	98.241832  
1708.000000	98.249687  
1707.000000	98.263966  
1706.000000	98.279607  
1705.000000	98.276786  
1704.000000	98.260560  
1703.000000	98.254753  
1702.000000	98.262710  
1701.000000	98.263964  
1700.000000	98.250452  
1699.000000	98.242316  
1698.000000	98.243303  
1697.000000	98.235269  
1696.000000	98.209678  
1695.000000	98.176906  
1694.000000	98.143542  
1693.000000	98.109810  
1692.000000	98.085627  
1691.000000	98.079061  
1690.000000	98.075896  
1689.000000	98.051656  
1688.000000	98.008213  
1687.000000	97.969153  
1686.000000	97.942921  
1685.000000	97.919855  
1684.000000	97.896411  
1683.000000	97.877889  
1682.000000	97.854449  
1681.000000	97.812412  
1680.000000	97.754929  
1679.000000	97.696059  
1678.000000	97.640107  
1677.000000	97.583947  
1676.000000	97.536309  
1675.000000	97.508329  
1674.000000	97.485327  
1673.000000	97.446923  
1672.000000	97.400218  
1671.000000	97.361603  
1670.000000	97.326292  
1669.000000	97.277975  
1668.000000	97.224934  
1667.000000	97.181325  
1666.000000	97.134019  
1665.000000	97.060783  
1664.000000	96.960715  
1663.000000	96.845277  
1662.000000	96.705129  
1661.000000	96.519402  
1660.000000	96.291076  
1659.000000	96.032111  
1658.000000	95.738544  
1657.000000	95.404229  
1656.000000	95.032232  
1655.000000	94.580553  
1654.000000	93.910491  
1653.000000	92.984747  
1652.000000	92.095390  
1651.000000	91.424742  
1650.000000	90.874738  
1649.000000	90.320213  
1648.000000	89.738580  
1647.000000	89.222448  
1646.000000	88.857793  
1645.000000	88.618203  
1644.000000	88.450447  
1643.000000	88.329826  
1642.000000	88.214891  
1641.000000	88.048538  
1640.000000	87.817193  
1639.000000	87.540516  
1638.000000	87.180068  
1637.000000	86.613480  
1636.000000	85.772143  
1635.000000	84.782123  
1634.000000	83.785094  
1633.000000	82.756546  
1632.000000	81.631123  
1631.000000	80.390108  
1630.000000	79.007731  
1629.000000	77.439762  
1628.000000	75.728327  
1627.000000	74.017775  
1626.000000	72.373252  
1625.000000	70.699859  
1624.000000	68.929091  
1623.000000	67.205576  
1622.000000	65.749917  
1621.000000	64.597957  
1620.000000	63.660708  
1619.000000	62.892315  
1618.000000	62.286705  
1617.000000	61.816528  
1616.000000	61.463982  
1615.000000	61.250743  
1614.000000	61.171113  
1613.000000	61.193441  
1612.000000	61.343241  
1611.000000	61.705314  
1610.000000	62.302538  
1609.000000	63.028167  
1608.000000	63.734174  
1607.000000	64.311621  
1606.000000	64.670173  
1605.000000	64.728878  
1604.000000	64.469762  
1603.000000	63.953969  
1602.000000	63.253299  
1601.000000	62.399101  
1600.000000	61.425907  
1599.000000	60.407922  
1598.000000	59.402198  
1597.000000	58.403839  
1596.000000	57.406905  
1595.000000	56.457266  
1594.000000	55.587996  
1593.000000	54.758541  
1592.000000	53.922918  
1591.000000	53.101701  
1590.000000	52.331838  
1589.000000	51.607747  
1588.000000	50.937552  
1587.000000	50.399173  
1586.000000	50.069035  
1585.000000	49.943242  
1584.000000	49.995928  
1583.000000	50.254629  
1582.000000	50.733026  
1581.000000	51.345994  
1580.000000	51.987480  
1579.000000	52.659114  
1578.000000	53.461090  
1577.000000	54.472435  
1576.000000	55.625235  
1575.000000	56.724294  
1574.000000	57.641376  
1573.000000	58.396603  
1572.000000	59.103368  
1571.000000	59.907632  
1570.000000	60.859407  
1569.000000	61.806124  
1568.000000	62.579711  
1567.000000	63.206390  
1566.000000	63.808430  
1565.000000	64.436948  
1564.000000	65.047873  
1563.000000	65.596383  
1562.000000	66.103354  
1561.000000	66.662573  
1560.000000	67.441289  
1559.000000	68.492376  
1558.000000	69.482143  
1557.000000	70.165064  
1556.000000	70.657593  
1555.000000	71.134382  
1554.000000	71.653768  
1553.000000	72.157589  
1552.000000	72.595801  
1551.000000	72.997820  
1550.000000	73.403801  
1549.000000	73.792057  
1548.000000	74.128725  
1547.000000	74.447686  
1546.000000	74.821455  
1545.000000	75.276274  
1544.000000	75.771372  
1543.000000	76.278885  
1542.000000	76.844382  
1541.000000	77.545267  
1540.000000	78.380046  
1539.000000	79.203135  
1538.000000	79.867628  
1537.000000	80.369281  
1536.000000	80.794520  
1535.000000	81.238514  
1534.000000	81.734724  
1533.000000	82.201712  
1532.000000	82.534757  
1531.000000	82.719802  
1530.000000	82.786135  
1529.000000	82.738981  
1528.000000	82.555333  
1527.000000	82.204813  
1526.000000	81.681109  
1525.000000	81.022701  
1524.000000	80.273739  
1523.000000	79.438614  
1522.000000	78.547245  
1521.000000	77.758971  
1520.000000	77.247408  
1519.000000	77.031677  
1518.000000	77.063255  
1517.000000	77.301964  
1516.000000	77.663414  
1515.000000	78.036320  
1514.000000	78.367236  
1513.000000	78.641590  
1512.000000	78.827255  
1511.000000	78.892157  
1510.000000	78.846286  
1509.000000	78.726129  
1508.000000	78.573888  
1507.000000	78.469283  
1506.000000	78.508689  
1505.000000	78.691825  
1504.000000	78.958446  
1503.000000	79.289383  
1502.000000	79.701373  
1501.000000	80.203982  
1500.000000	80.780211  
1499.000000	81.411110  
1498.000000	82.100658  
1497.000000	82.845235  
1496.000000	83.590980  
1495.000000	84.273174  
1494.000000	84.879785  
1493.000000	85.442536  
1492.000000	86.008810  
1491.000000	86.618327  
1490.000000	87.255820  
1489.000000	87.843706  
1488.000000	88.333735  
1487.000000	88.749919  
1486.000000	89.120598  
1485.000000	89.437517  
1484.000000	89.697361  
1483.000000	89.931253  
1482.000000	90.165547  
1481.000000	90.387094  
1480.000000	90.575507  
1479.000000	90.742092  
1478.000000	90.900111  
1477.000000	91.029528  
1476.000000	91.102603  
1475.000000	91.118148  
1474.000000	91.069772  
1473.000000	90.915703  
1472.000000	90.632351  
1471.000000	90.243334  
1470.000000	89.749966  
1469.000000	89.112446  
1468.000000	88.296106  
1467.000000	87.278693  
1466.000000	86.052140  
1465.000000	84.717684  
1464.000000	83.534740  
1463.000000	82.689481  
1462.000000	82.096617  
1461.000000	81.509931  
1460.000000	80.673226  
1459.000000	79.334332  
1458.000000	77.293834  
1457.000000	74.804198  
1456.000000	72.735417  
1455.000000	71.683028  
1454.000000	71.607321  
1453.000000	72.326297  
1452.000000	73.654392  
1451.000000	75.308277  
1450.000000	77.008071  
1449.000000	78.605434  
1448.000000	80.017831  
1447.000000	81.178975  
1446.000000	82.116211  
1445.000000	82.950353  
1444.000000	83.800318  
1443.000000	84.727389  
1442.000000	85.728002  
1441.000000	86.732173  
1440.000000	87.644470  
1439.000000	88.427585  
1438.000000	89.119879  
1437.000000	89.735160  
1436.000000	90.191407  
1435.000000	90.443815  
1434.000000	90.565780  
1433.000000	90.628922  
1432.000000	90.637551  
1431.000000	90.576327  
1430.000000	90.451484  
1429.000000	90.264317  
1428.000000	89.995144  
1427.000000	89.635046  
1426.000000	89.177229  
1425.000000	88.577926  
1424.000000	87.793831  
1423.000000	86.842139  
1422.000000	85.718516  
1421.000000	84.264576  
1420.000000	82.235823  
1419.000000	79.611624  
1418.000000	76.709067  
1417.000000	73.791493  
1416.000000	70.912701  
1415.000000	68.140162  
1414.000000	65.633507  
1413.000000	63.593413  
1412.000000	62.258207  
1411.000000	61.838867  
1410.000000	62.359101  
1409.000000	63.656415  
1408.000000	65.548961  
1407.000000	67.895164  
1406.000000	70.530526  
1405.000000	73.237820  
1404.000000	75.783417  
1403.000000	78.004579  
1402.000000	79.896181  
1401.000000	81.579694  
1400.000000	83.162525  
1399.000000	84.624313  
1398.000000	85.877809  
1397.000000	86.917108  
1396.000000	87.814214  
1395.000000	88.614703  
1394.000000	89.303081  
1393.000000	89.857384  
1392.000000	90.289780  
1391.000000	90.633276  
1390.000000	90.920374  
1389.000000	91.166743  
1388.000000	91.362690  
1387.000000	91.490467  
1386.000000	91.550380  
1385.000000	91.546924  
1384.000000	91.454747  
1383.000000	91.214388  
1382.000000	90.755746  
1381.000000	90.039925  
1380.000000	89.126412  
1379.000000	88.217148  
1378.000000	87.557517  
1377.000000	87.229299  
1376.000000	87.074665  
1375.000000	86.829365  
1374.000000	86.301651  
1373.000000	85.429326  
1372.000000	84.195111  
1371.000000	82.548551  
1370.000000	80.420739  
1369.000000	77.788643  
1368.000000	74.745045  
1367.000000	71.501526  
1366.000000	68.281465  
1365.000000	65.228425  
1364.000000	62.470076  
1363.000000	60.244315  
1362.000000	58.833942  
1361.000000	58.317134  
1360.000000	58.498969  
1359.000000	59.104787  
1358.000000	59.966479  
1357.000000	61.070109  
1356.000000	62.487261  
1355.000000	64.253089  
1354.000000	66.290701  
1353.000000	68.450358  
1352.000000	70.602051  
1351.000000	72.671588  
1350.000000	74.614822  
1349.000000	76.397640  
1348.000000	78.004693  
1347.000000	79.445055  
1346.000000	80.740744  
1345.000000	81.911311  
1344.000000	82.968235  
1343.000000	83.921116  
1342.000000	84.786724  
1341.000000	85.585285  
1340.000000	86.324037  
1339.000000	86.992747  
1338.000000	87.584636  
1337.000000	88.112147  
1336.000000	88.594105  
1335.000000	89.039635  
1334.000000	89.451210  
1333.000000	89.832387  
1332.000000	90.184027  
1331.000000	90.500027  
1330.000000	90.774535  
1329.000000	91.008462  
1328.000000	91.203769  
1327.000000	91.357055  
1326.000000	91.462574  
1325.000000	91.514458  
1324.000000	91.502466  
1323.000000	91.411353  
1322.000000	91.227064  
1321.000000	90.936355  
1320.000000	90.517724  
1319.000000	89.938419  
1318.000000	89.159744  
1317.000000	88.134238  
1316.000000	86.791716  
1315.000000	85.035189  
1314.000000	82.764637  
1313.000000	79.927884  
1312.000000	76.575143  
1311.000000	72.877761  
1310.000000	69.098885  
1309.000000	65.556619  
1308.000000	62.599911  
1307.000000	60.547715  
1306.000000	59.585527  
1305.000000	59.711175  
1304.000000	60.767143  
1303.000000	62.493731  
1302.000000	64.584252  
1301.000000	66.768112  
1300.000000	68.879463  
1299.000000	70.853169  
1298.000000	72.674790  
1297.000000	74.346798  
1296.000000	75.881374  
1295.000000	77.293998  
1294.000000	78.592621  
1293.000000	79.776665  
1292.000000	80.846420  
1291.000000	81.810051  
1290.000000	82.681512  
1289.000000	83.473581  
1288.000000	84.194464  
1287.000000	84.851505  
1286.000000	85.455236  
1285.000000	86.015983  
1284.000000	86.538288  
1283.000000	87.023493  
1282.000000	87.476693  
1281.000000	87.905324  
1280.000000	88.311523  
1279.000000	88.692679  
1278.000000	89.050117  
1277.000000	89.390838  
1276.000000	89.719944  
1275.000000	90.037736  
1274.000000	90.344314  
1273.000000	90.640023  
1272.000000	90.920745  
1271.000000	91.180056  
1270.000000	91.417275  
1269.000000	91.637016  
1268.000000	91.841206  
1267.000000	92.028938  
1266.000000	92.203101  
1265.000000	92.368698  
1264.000000	92.525359  
1263.000000	92.670294  
1262.000000	92.807518  
1261.000000	92.943841  
1260.000000	93.075414  
1259.000000	93.188893  
1258.000000	93.278324  
1257.000000	93.352436  
1256.000000	93.423601  
1255.000000	93.496635  
1254.000000	93.567667  
1253.000000	93.625773  
1252.000000	93.655236  
1251.000000	93.643583  
1250.000000	93.587757  
1249.000000	93.486150  
1248.000000	93.326028  
1247.000000	93.083772  
1246.000000	92.730369  
1245.000000	92.224149  
1244.000000	91.499467  
1243.000000	90.474857  
1242.000000	89.081741  
1241.000000	87.303874  
1240.000000	85.229507  
1239.000000	83.092926  
1238.000000	81.240649  
1237.000000	80.008981  
1236.000000	79.592989  
1235.000000	79.982112  
1234.000000	80.987020  
1233.000000	82.341601  
1232.000000	83.810065  
1231.000000	85.237097  
1230.000000	86.546212  
1229.000000	87.716287  
1228.000000	88.751691  
1227.000000	89.662412  
1226.000000	90.463800  
1225.000000	91.178901  
1224.000000	91.823402  
1223.000000	92.384538  
1222.000000	92.822125  
1221.000000	93.099434  
1220.000000	93.224590  
1219.000000	93.271672  
1218.000000	93.353470  
1217.000000	93.553858  
1216.000000	93.876649  
1215.000000	94.257988  
1214.000000	94.623071  
1213.000000	94.928527  
1212.000000	95.163970  
1211.000000	95.337798  
1210.000000	95.469143  
1209.000000	95.579072  
1208.000000	95.680181  
1207.000000	95.778205  
1206.000000	95.881454  
1205.000000	95.998542  
1204.000000	96.127680  
1203.000000	96.259803  
1202.000000	96.393710  
1201.000000	96.537680  
1200.000000	96.694842  
1199.000000	96.858038  
1198.000000	97.021804  
1197.000000	97.189641  
1196.000000	97.366275  
1195.000000	97.550707  
1194.000000	97.738376  
1193.000000	97.922162  
1192.000000	98.091329  
1191.000000	98.239235  
1190.000000	98.372649  
1189.000000	98.503598  
1188.000000	98.632336  
1187.000000	98.749144  
1186.000000	98.852369  
1185.000000	98.951806  
1184.000000	99.052370  
1183.000000	99.146493  
1182.000000	99.225701  
1181.000000	99.289671  
1180.000000	99.341478  
1179.000000	99.383642  
1178.000000	99.421151  
1177.000000	99.459265  
1176.000000	99.495459  
1175.000000	99.519746  
1174.000000	99.523281  
1173.000000	99.501065  
1172.000000	99.449401  
1171.000000	99.370108  
1170.000000	99.275510  
1169.000000	99.179406  
1168.000000	99.082547  
1167.000000	98.972471  
1166.000000	98.834430  
1165.000000	98.655961  
1164.000000	98.424894  
1163.000000	98.129782  
1162.000000	97.756382  
1161.000000	97.274697  
1160.000000	96.634606  
1159.000000	95.784265  
1158.000000	94.693432  
1157.000000	93.364709  
1156.000000	91.848677  
1155.000000	90.268654  
1154.000000	88.816785  
1153.000000	87.699225  
1152.000000	87.065066  
1151.000000	86.959077  
1150.000000	87.316958  
1149.000000	88.009090  
1148.000000	88.903239  
1147.000000	89.898273  
1146.000000	90.919416  
1145.000000	91.904242  
1144.000000	92.802633  
1143.000000	93.587650  
1142.000000	94.259371  
1141.000000	94.832063  
1140.000000	95.318009  
1139.000000	95.725170  
1138.000000	96.062776  
1137.000000	96.340133  
1136.000000	96.563020  
1135.000000	96.738576  
1134.000000	96.880185  
1133.000000	96.999948  
1132.000000	97.098999  
1131.000000	97.171035  
1130.000000	97.211442  
1129.000000	97.216467  
1128.000000	97.176599  
1127.000000	97.076086  
1126.000000	96.895333  
1125.000000	96.609008  
1124.000000	96.184116  
1123.000000	95.576038  
1122.000000	94.706211  
1121.000000	93.426072  
1120.000000	91.515256  
1119.000000	88.764156  
1118.000000	85.135227  
1117.000000	80.924264  
1116.000000	76.796698  
1115.000000	73.581065  
1114.000000	71.872744  
1113.000000	71.764960  
1112.000000	72.944662  
1111.000000	74.983313  
1110.000000	77.517694  
1109.000000	80.253272  
1108.000000	82.924703  
1107.000000	85.319608  
1106.000000	87.333228  
1105.000000	88.965479  
1104.000000	90.259923  
1103.000000	91.261996  
1102.000000	92.021741  
1101.000000	92.599974  
1100.000000	93.061262  
1099.000000	93.468925  
1098.000000	93.873012  
1097.000000	94.284292  
1096.000000	94.669853  
1095.000000	94.993694  
1094.000000	95.256350  
1093.000000	95.482490  
1092.000000	95.685133  
1091.000000	95.862856  
1090.000000	96.019084  
1089.000000	96.160350  
1088.000000	96.283873  
1087.000000	96.388008  
1086.000000	96.486581  
1085.000000	96.592694  
1084.000000	96.697836  
1083.000000	96.787619  
1082.000000	96.868314  
1081.000000	96.955205  
1080.000000	97.042879  
1079.000000	97.111159  
1078.000000	97.156889  
1077.000000	97.199433  
1076.000000	97.258470  
1075.000000	97.343530  
1074.000000	97.457360  
1073.000000	97.589385  
1072.000000	97.711659  
1071.000000	97.801308  
1070.000000	97.864329  
1069.000000	97.921957  
1068.000000	97.980931  
1067.000000	98.033518  
1066.000000	98.076773  
1065.000000	98.112399  
1064.000000	98.136341  
1063.000000	98.148298  
1062.000000	98.163668  
1061.000000	98.197703  
1060.000000	98.246520  
1059.000000	98.300273  
1058.000000	98.362285  
1057.000000	98.434858  
1056.000000	98.499461  
1055.000000	98.536373  
1054.000000	98.555946  
1053.000000	98.585617  
1052.000000	98.633564  
1051.000000	98.693664  
1050.000000	98.780730  
1049.000000	98.926216  
1048.000000	99.137514  
1047.000000	99.391363  
1046.000000	99.667562  
1045.000000	99.962534  
1044.000000	100.270387 
1043.000000	100.575432 
1042.000000	100.865409 
1041.000000	101.132182 
1040.000000	101.358949 
1039.000000	101.526220 
1038.000000	101.630040 
1037.000000	101.676435 
1036.000000	101.663462 
1035.000000	101.589737 
1034.000000	101.472566 
1033.000000	101.331837 
1032.000000	101.160284 
1031.000000	100.932023 
1030.000000	100.633351 
1029.000000	100.261191 
1028.000000	99.798112  
1027.000000	99.210279  
1026.000000	98.453770  
1025.000000	97.451362  
1024.000000	96.085009  
1023.000000	94.277701  
1022.000000	92.111286  
1021.000000	89.825204  
1020.000000	87.644871  
1019.000000	85.577018  
1018.000000	83.375317  
1017.000000	80.760942  
1016.000000	77.749794  
1015.000000	74.803049  
1014.000000	72.636311  
1013.000000	71.825523  
1012.000000	72.522204  
1011.000000	74.439814  
1010.000000	77.052066  
1009.000000	79.846410  
1008.000000	82.479750  
1007.000000	84.793765  
1006.000000	86.755301  
1005.000000	88.387068  
1004.000000	89.721570  
1003.000000	90.794602  
1002.000000	91.659054  
1001.000000	92.375967  
1000.000000	92.983888  
999.000000	 93.492943  
998.000000	 93.912975  
997.000000	 94.268727  
996.000000	 94.579865  
995.000000	 94.845226  
994.000000	 95.059633  
993.000000	 95.233809  
992.000000	 95.386663  
991.000000	 95.527854  
990.000000	 95.657338  
989.000000	 95.773717  
988.000000	 95.874803  
987.000000	 95.957109  
986.000000	 96.021628  
985.000000	 96.074255  
984.000000	 96.117005  
983.000000	 96.147262  
982.000000	 96.169603  
981.000000	 96.198572  
980.000000	 96.243237  
979.000000	 96.296376  
978.000000	 96.345493  
977.000000	 96.389036  
976.000000	 96.435992  
975.000000	 96.494290  
974.000000	 96.564938  
973.000000	 96.643631  
972.000000	 96.722659  
971.000000	 96.792925  
970.000000	 96.847786  
969.000000	 96.884847  
968.000000	 96.904340  
967.000000	 96.908164  
966.000000	 96.899229  
965.000000	 96.878148  
964.000000	 96.842615  
963.000000	 96.794403  
962.000000	 96.743748  
961.000000	 96.700135  
960.000000	 96.660593  
959.000000	 96.613362  
958.000000	 96.551366  
957.000000	 96.475625  
956.000000	 96.387482  
955.000000	 96.285690  
954.000000	 96.171352  
953.000000	 96.049396  
952.000000	 95.925480  
951.000000	 95.806686  
950.000000	 95.703586  
949.000000	 95.625122  
948.000000	 95.571010  
947.000000	 95.533295  
946.000000	 95.505103  
945.000000	 95.485307  
944.000000	 95.477303  
943.000000	 95.486607  
942.000000	 95.515304  
941.000000	 95.553295  
940.000000	 95.579274  
939.000000	 95.578676  
938.000000	 95.559949  
937.000000	 95.545917  
936.000000	 95.548676  
935.000000	 95.557606  
934.000000	 95.550105  
933.000000	 95.507789  
932.000000	 95.422563  
931.000000	 95.292858  
930.000000	 95.114458  
929.000000	 94.869917  
928.000000	 94.524555  
927.000000	 94.030802  
926.000000	 93.329185  
925.000000	 92.342187  
924.000000	 90.984438  
923.000000	 89.215830  
922.000000	 87.126184  
921.000000	 84.999100  
920.000000	 83.288003  
919.000000	 82.458265  
918.000000	 82.749233  
917.000000	 84.034668  
916.000000	 85.906489  
915.000000	 87.903589  
914.000000	 89.708551  
913.000000	 91.200286  
912.000000	 92.385733  
911.000000	 93.316604  
910.000000	 94.050986  
909.000000	 94.639669  
908.000000	 95.115313  
907.000000	 95.495105  
906.000000	 95.795410  
905.000000	 96.034527  
904.000000	 96.222261  
903.000000	 96.360328  
902.000000	 96.455759  
901.000000	 96.523932  
900.000000	 96.577113  
899.000000	 96.618527  
898.000000	 96.647206  
897.000000	 96.661906  
896.000000	 96.663499  
895.000000	 96.661479  
894.000000	 96.672363  
893.000000	 96.701454  
892.000000	 96.732279  
891.000000	 96.746241  
890.000000	 96.747667  
889.000000	 96.756327  
888.000000	 96.780360  
887.000000	 96.811216  
886.000000	 96.840081  
885.000000	 96.861699  
884.000000	 96.865187  
883.000000	 96.842888  
882.000000	 96.812009  
881.000000	 96.807774  
880.000000	 96.847068  
879.000000	 96.912547  
878.000000	 96.978031  
877.000000	 97.034875  
876.000000	 97.085711  
875.000000	 97.127409  
874.000000	 97.152158  
873.000000	 97.156198  
872.000000	 97.138245  
871.000000	 97.096239  
870.000000	 97.032086  
869.000000	 96.953573  
868.000000	 96.867383  
867.000000	 96.774892  
866.000000	 96.674447  
865.000000	 96.558778  
864.000000	 96.407835  
863.000000	 96.192555  
862.000000	 95.888174  
861.000000	 95.473083  
860.000000	 94.906222  
859.000000	 94.108120  
858.000000	 92.964040  
857.000000	 91.337214  
856.000000	 89.085416  
855.000000	 86.110347  
854.000000	 82.461841  
853.000000	 78.447934  
852.000000	 74.640604  
851.000000	 71.698425  
850.000000	 70.084643  
849.000000	 69.910617  
848.000000	 71.016847  
847.000000	 73.129173  
846.000000	 75.915682  
845.000000	 78.984999  
844.000000	 81.941862  
843.000000	 84.500392  
842.000000	 86.558198  
841.000000	 88.164082  
840.000000	 89.421884  
839.000000	 90.422735  
838.000000	 91.231427  
837.000000	 91.891507  
836.000000	 92.431699  
835.000000	 92.879363  
834.000000	 93.267435  
833.000000	 93.619031  
832.000000	 93.932212  
831.000000	 94.194529  
830.000000	 94.409917  
829.000000	 94.599584  
828.000000	 94.781658  
827.000000	 94.962950  
826.000000	 95.143594  
825.000000	 95.315031  
824.000000	 95.462251  
823.000000	 95.584464  
822.000000	 95.701728  
821.000000	 95.823455  
820.000000	 95.926452  
819.000000	 95.985002  
818.000000	 96.008737  
817.000000	 96.028885  
816.000000	 96.058178  
815.000000	 96.087703  
814.000000	 96.114792  
813.000000	 96.146843  
812.000000	 96.179233  
811.000000	 96.196331  
810.000000	 96.198877  
809.000000	 96.208058  
808.000000	 96.237476  
807.000000	 96.281034  
806.000000	 96.332584  
805.000000	 96.396544  
804.000000	 96.471811  
803.000000	 96.544487  
802.000000	 96.606207  
801.000000	 96.663595  
800.000000	 96.719867  
799.000000	 96.761973  
798.000000	 96.776871  
797.000000	 96.768816  
796.000000	 96.749857  
795.000000	 96.721724  
794.000000	 96.675301  
793.000000	 96.601823  
792.000000	 96.499722  
791.000000	 96.376420  
790.000000	 96.244867  
789.000000	 96.109092  
788.000000	 95.950442  
787.000000	 95.736582  
786.000000	 95.447014  
785.000000	 95.082307  
784.000000	 94.646387  
783.000000	 94.127460  
782.000000	 93.497208  
781.000000	 92.719707  
780.000000	 91.758263  
779.000000	 90.581640  
778.000000	 89.172406  
777.000000	 87.538187  
776.000000	 85.729823  
775.000000	 83.861197  
774.000000	 82.112552  
773.000000	 80.711246  
772.000000	 79.894880  
771.000000	 79.846126  
770.000000	 80.606716  
769.000000	 82.034989  
768.000000	 83.857881  
767.000000	 85.783030  
766.000000	 87.593907  
765.000000	 89.178379  
764.000000	 90.501572  
763.000000	 91.573261  
762.000000	 92.433409  
761.000000	 93.135411  
760.000000	 93.718892  
759.000000	 94.198575  
758.000000	 94.580702  
757.000000	 94.880420  
756.000000	 95.118877  
755.000000	 95.312847  
754.000000	 95.474640  
753.000000	 95.618969  
752.000000	 95.765392  
751.000000	 95.930792  
750.000000	 96.113580  
749.000000	 96.285874  
748.000000	 96.414976  
747.000000	 96.501992  
746.000000	 96.587765  
745.000000	 96.706527  
744.000000	 96.843613  
743.000000	 96.955654  
742.000000	 97.024336  
741.000000	 97.070321  
740.000000	 97.119419  
739.000000	 97.178365  
738.000000	 97.244274  
737.000000	 97.315563  
736.000000	 97.387293  
735.000000	 97.451864  
734.000000	 97.509931  
733.000000	 97.567848  
732.000000	 97.622121  
731.000000	 97.660683  
730.000000	 97.681870  
729.000000	 97.697554  
728.000000	 97.717302  
727.000000	 97.742679  
726.000000	 97.777046  
725.000000	 97.827189  
724.000000	 97.890186  
723.000000	 97.950190  
722.000000	 97.992477  
721.000000	 98.013778  
720.000000	 98.018297  
719.000000	 98.010193  
718.000000	 97.993352  
717.000000	 97.972687  
716.000000	 97.950484  
715.000000	 97.925928  
714.000000	 97.897754  
713.000000	 97.863224  
712.000000	 97.820826  
711.000000	 97.779054  
710.000000	 97.753716  
709.000000	 97.746974  
708.000000	 97.739071  
707.000000	 97.713441  
706.000000	 97.679191  
705.000000	 97.657530  
704.000000	 97.654019  
703.000000	 97.656438  
702.000000	 97.654715  
701.000000	 97.645136  
700.000000	 97.619583  
699.000000	 97.574808  
698.000000	 97.527377  
697.000000	 97.500413  
696.000000	 97.494744  
695.000000	 97.489770  
694.000000	 97.481549  
693.000000	 97.496868  
692.000000	 97.556671  
691.000000	 97.642061  
690.000000	 97.705359  
689.000000	 97.714061  
688.000000	 97.678363  
687.000000	 97.635145  
686.000000	 97.611344  
685.000000	 97.604658  
684.000000	 97.601378  
683.000000	 97.604900  
682.000000	 97.625522  
681.000000	 97.642283  
680.000000	 97.605611  
679.000000	 97.503160  
678.000000	 97.398743  
677.000000	 97.374122  
676.000000	 97.446121  
675.000000	 97.553209  
674.000000	 97.619703  
673.000000	 97.613922  
672.000000	 97.554120  
671.000000	 97.473128  
670.000000	 97.400789  
669.000000	 97.340587  
668.000000	 97.218033  
667.000000	 96.946695  
666.000000	 96.663182  
665.000000	 96.421057  
664.000000	 96.115616  
663.000000	 95.692657  
662.000000	 95.179484  
661.000000	 94.587548  
660.000000	 93.856023  
659.000000	 92.909452  
658.000000	 91.716904  
657.000000	 90.268250  
656.000000	 88.564699  
655.000000	 86.655441  
654.000000	 84.614714  
653.000000	 82.490496  
652.000000	 80.380589  
651.000000	 78.508638  
650.000000	 77.070592  

