PE IR                   SPECTRUM    ASCII       PEDS        1.60        
  -1
~SP.SP
18/03/23
18:23:29.00
18/03/23
18:23:29.00
pili

650.000000
4









SPECTRUM 100,CPU32 MAIN 00.02.8200 12-DECEMBER-2006 10:00:00
MIR TGS
MIR
OPTKBR
78890
0.200000

4.000000
STRONG
RATIO
SPECTRUM
MAGNITUDE
UNIVERSAL ATR
DOUBLE

COMBINED


0


#HDR
-1
-1
#GR
CM-1
%T
0.00002384185791015625
0.0
4000.000000
-1.000000
3351
8
98.903355
39.760255
#DATA
4000.000000	97.574071 
3999.000000	97.571765 
3998.000000	97.580255 
3997.000000	97.598609 
3996.000000	97.619458 
3995.000000	97.634678 
3994.000000	97.619071 
3993.000000	97.624010 
3992.000000	97.630981 
3991.000000	97.638901 
3990.000000	97.642034 
3989.000000	97.636274 
3988.000000	97.623867 
3987.000000	97.612027 
3986.000000	97.606872 
3985.000000	97.609027 
3984.000000	97.614607 
3983.000000	97.619600 
3982.000000	97.622413 
3981.000000	97.622850 
3980.000000	97.620405 
3979.000000	97.614448 
3978.000000	97.605748 
3977.000000	97.597346 
3976.000000	97.593328 
3975.000000	97.595698 
3974.000000	97.601736 
3973.000000	97.605098 
3972.000000	97.601066 
3971.000000	97.590814 
3970.000000	97.580214 
3969.000000	97.574533 
3968.000000	97.574931 
3967.000000	97.579981 
3966.000000	97.588443 
3965.000000	97.599111 
3964.000000	97.608964 
3963.000000	97.613343 
3962.000000	97.609186 
3961.000000	97.598294 
3960.000000	97.587028 
3959.000000	97.581800 
3958.000000	97.584346 
3957.000000	97.591300 
3956.000000	97.598073 
3955.000000	97.603386 
3954.000000	97.609224 
3953.000000	97.617453 
3952.000000	97.627687 
3951.000000	97.638382 
3950.000000	97.649135 
3949.000000	97.660145 
3948.000000	97.670079 
3947.000000	97.675589 
3946.000000	97.673626 
3945.000000	97.664628 
3944.000000	97.653554 
3943.000000	97.647310 
3942.000000	97.649146 
3941.000000	97.655594 
3940.000000	97.660464 
3939.000000	97.660874 
3938.000000	97.658097 
3937.000000	97.653771 
3936.000000	97.647080 
3935.000000	97.637050 
3934.000000	97.625456 
3933.000000	97.616686 
3932.000000	97.614809 
3931.000000	97.621122 
3930.000000	97.633378 
3929.000000	97.645665 
3928.000000	97.651588 
3927.000000	97.649968 
3926.000000	97.646383 
3925.000000	97.648141 
3924.000000	97.656355 
3923.000000	97.664328 
3922.000000	97.665353 
3921.000000	97.659474 
3920.000000	97.652374 
3919.000000	97.648909 
3918.000000	97.648638 
3917.000000	97.647649 
3916.000000	97.643026 
3915.000000	97.635443 
3914.000000	97.628195 
3913.000000	97.624728 
3912.000000	97.626836 
3911.000000	97.633595 
3910.000000	97.641823 
3909.000000	97.647504 
3908.000000	97.646613 
3907.000000	97.638441 
3906.000000	97.627938 
3905.000000	97.624822 
3904.000000	97.636371 
3903.000000	97.658406 
3902.000000	97.677980 
3901.000000	97.686545 
3900.000000	97.686887 
3899.000000	97.688015 
3898.000000	97.694526 
3897.000000	97.703533 
3896.000000	97.710495 
3895.000000	97.712248 
3894.000000	97.706191 
3893.000000	97.692156 
3892.000000	97.676459 
3891.000000	97.669452 
3890.000000	97.672477 
3889.000000	97.676976 
3888.000000	97.676068 
3887.000000	97.672721 
3886.000000	97.676786 
3885.000000	97.693115 
3884.000000	97.713778 
3883.000000	97.726734 
3882.000000	97.727181 
3881.000000	97.719574 
3880.000000	97.713055 
3879.000000	97.713567 
3878.000000	97.717689 
3877.000000	97.719181 
3876.000000	97.717842 
3875.000000	97.720387 
3874.000000	97.732334 
3873.000000	97.749236 
3872.000000	97.758842 
3871.000000	97.754874 
3870.000000	97.744727 
3869.000000	97.736565 
3868.000000	97.728551 
3867.000000	97.717833 
3866.000000	97.707225 
3865.000000	97.700344 
3864.000000	97.696945 
3863.000000	97.695660 
3862.000000	97.699346 
3861.000000	97.710705 
3860.000000	97.726481 
3859.000000	97.741576 
3858.000000	97.754939 
3857.000000	97.767552 
3856.000000	97.774711 
3855.000000	97.768213 
3854.000000	97.756036 
3853.000000	97.754407 
3852.000000	97.756507 
3851.000000	97.746910 
3850.000000	97.731070 
3849.000000	97.722289 
3848.000000	97.725461 
3847.000000	97.735232 
3846.000000	97.744729 
3845.000000	97.752203 
3844.000000	97.759188 
3843.000000	97.765727 
3842.000000	97.770654 
3841.000000	97.772643 
3840.000000	97.770975 
3839.000000	97.766738 
3838.000000	97.761930 
3837.000000	97.758099 
3836.000000	97.755586 
3835.000000	97.754995 
3834.000000	97.757093 
3833.000000	97.760012 
3832.000000	97.760709 
3831.000000	97.758617 
3830.000000	97.755036 
3829.000000	97.752150 
3828.000000	97.752662 
3827.000000	97.758168 
3826.000000	97.767591 
3825.000000	97.776268 
3824.000000	97.777500 
3823.000000	97.766886 
3822.000000	97.749383 
3821.000000	97.738765 
3820.000000	97.741150 
3819.000000	97.748788 
3818.000000	97.753710 
3817.000000	97.755804 
3816.000000	97.759034 
3815.000000	97.763252 
3814.000000	97.763970 
3813.000000	97.760850 
3812.000000	97.758573 
3811.000000	97.758671 
3810.000000	97.757635 
3809.000000	97.752542 
3808.000000	97.747792 
3807.000000	97.752409 
3806.000000	97.768522 
3805.000000	97.788166 
3804.000000	97.803948 
3803.000000	97.813408 
3802.000000	97.819114 
3801.000000	97.825730 
3800.000000	97.829617 
3799.000000	97.823677 
3798.000000	97.808768 
3797.000000	97.790177 
3796.000000	97.771690 
3795.000000	97.755365 
3794.000000	97.743783 
3793.000000	97.740159 
3792.000000	97.745265 
3791.000000	97.754409 
3790.000000	97.760582 
3789.000000	97.760453 
3788.000000	97.755856 
3787.000000	97.751098 
3786.000000	97.749512 
3785.000000	97.751626 
3784.000000	97.755427 
3783.000000	97.757888 
3782.000000	97.757472 
3781.000000	97.755979 
3780.000000	97.757258 
3779.000000	97.762216 
3778.000000	97.766029 
3777.000000	97.762340 
3776.000000	97.750410 
3775.000000	97.736496 
3774.000000	97.728021 
3773.000000	97.727290 
3772.000000	97.730316 
3771.000000	97.731402 
3770.000000	97.728829 
3769.000000	97.724917 
3768.000000	97.721960 
3767.000000	97.722661 
3766.000000	97.728990 
3765.000000	97.738505 
3764.000000	97.744903 
3763.000000	97.744770 
3762.000000	97.743253 
3761.000000	97.749932 
3760.000000	97.768593 
3759.000000	97.791508 
3758.000000	97.807767 
3757.000000	97.815318 
3756.000000	97.821407 
3755.000000	97.834765 
3754.000000	97.857241 
3753.000000	97.880336 
3752.000000	97.891193 
3751.000000	97.888446 
3750.000000	97.886434 
3749.000000	97.896015 
3748.000000	97.912341 
3747.000000	97.922988 
3746.000000	97.917410 
3745.000000	97.901669 
3744.000000	97.892715 
3743.000000	97.887577 
3742.000000	97.871681 
3741.000000	97.847246 
3740.000000	97.826420 
3739.000000	97.815124 
3738.000000	97.808534 
3737.000000	97.800086 
3736.000000	97.789029 
3735.000000	97.780719 
3734.000000	97.781293 
3733.000000	97.790187 
3732.000000	97.798326 
3731.000000	97.794683 
3730.000000	97.777368 
3729.000000	97.757990 
3728.000000	97.751402 
3727.000000	97.762654 
3726.000000	97.782322 
3725.000000	97.794696 
3724.000000	97.792162 
3723.000000	97.780907 
3722.000000	97.774493 
3721.000000	97.779883 
3720.000000	97.792358 
3719.000000	97.801968 
3718.000000	97.802604 
3717.000000	97.797767 
3716.000000	97.796866 
3715.000000	97.807243 
3714.000000	97.827080 
3713.000000	97.843827 
3712.000000	97.844927 
3711.000000	97.829792 
3710.000000	97.809865 
3709.000000	97.797661 
3708.000000	97.796484 
3707.000000	97.802507 
3706.000000	97.809722 
3705.000000	97.812913 
3704.000000	97.808569 
3703.000000	97.795487 
3702.000000	97.778101 
3701.000000	97.764694 
3700.000000	97.760993 
3699.000000	97.767930 
3698.000000	97.784033 
3697.000000	97.807151 
3696.000000	97.833764 
3695.000000	97.858609 
3694.000000	97.878138 
3693.000000	97.892877 
3692.000000	97.904984 
3691.000000	97.912726 
3690.000000	97.911468 
3689.000000	97.901716 
3688.000000	97.888260 
3687.000000	97.874894 
3686.000000	97.865246 
3685.000000	97.862108 
3684.000000	97.863822 
3683.000000	97.865665 
3682.000000	97.866600 
3681.000000	97.872556 
3680.000000	97.889226 
3679.000000	97.912205 
3678.000000	97.926007 
3677.000000	97.915887 
3676.000000	97.889745 
3675.000000	97.872960 
3674.000000	97.873510 
3673.000000	97.878432 
3672.000000	97.878398 
3671.000000	97.874603 
3670.000000	97.875648 
3669.000000	97.886164 
3668.000000	97.899510 
3667.000000	97.908109 
3666.000000	97.911025 
3665.000000	97.910343 
3664.000000	97.906302 
3663.000000	97.897209 
3662.000000	97.883725 
3661.000000	97.871687 
3660.000000	97.867036 
3659.000000	97.869654 
3658.000000	97.873904 
3657.000000	97.876787 
3656.000000	97.882049 
3655.000000	97.891712 
3654.000000	97.902350 
3653.000000	97.911176 
3652.000000	97.918889 
3651.000000	97.926686 
3650.000000	97.935719 
3649.000000	97.946377 
3648.000000	97.956552 
3647.000000	97.964081 
3646.000000	97.969697 
3645.000000	97.974939 
3644.000000	97.979935 
3643.000000	97.983726 
3642.000000	97.984836 
3641.000000	97.983160 
3640.000000	97.979647 
3639.000000	97.975350 
3638.000000	97.969775 
3637.000000	97.961376 
3636.000000	97.950832 
3635.000000	97.942382 
3634.000000	97.940366 
3633.000000	97.943930 
3632.000000	97.948026 
3631.000000	97.949303 
3630.000000	97.950793 
3629.000000	97.960798 
3628.000000	97.981014 
3627.000000	98.001356 
3626.000000	98.015773 
3625.000000	98.027623 
3624.000000	98.037290 
3623.000000	98.037356 
3622.000000	98.021666 
3621.000000	97.996033 
3620.000000	97.978796 
3619.000000	97.986239 
3618.000000	98.015371 
3617.000000	98.047225 
3616.000000	98.064237 
3615.000000	98.059073 
3614.000000	98.035493 
3613.000000	98.005737 
3612.000000	97.984833 
3611.000000	97.983492 
3610.000000	98.002067 
3609.000000	98.028376 
3608.000000	98.044801 
3607.000000	98.044165 
3606.000000	98.036899 
3605.000000	98.040452 
3604.000000	98.062658 
3603.000000	98.094553 
3602.000000	98.118342 
3601.000000	98.122508 
3600.000000	98.111347 
3599.000000	98.098509 
3598.000000	98.093690 
3597.000000	98.097625 
3596.000000	98.106245 
3595.000000	98.115737 
3594.000000	98.125225 
3593.000000	98.134183 
3592.000000	98.140793 
3591.000000	98.144137 
3590.000000	98.145504 
3589.000000	98.147258 
3588.000000	98.150892 
3587.000000	98.156810 
3586.000000	98.163718 
3585.000000	98.169744 
3584.000000	98.174630 
3583.000000	98.180951 
3582.000000	98.190931 
3581.000000	98.203821 
3580.000000	98.216139 
3579.000000	98.223935 
3578.000000	98.226090 
3577.000000	98.225270 
3576.000000	98.226260 
3575.000000	98.231342 
3574.000000	98.238179 
3573.000000	98.242829 
3572.000000	98.244799 
3571.000000	98.249462 
3570.000000	98.263848 
3569.000000	98.288415 
3568.000000	98.313063 
3567.000000	98.327118 
3566.000000	98.332356 
3565.000000	98.339073 
3564.000000	98.352117 
3563.000000	98.366484 
3562.000000	98.374440 
3561.000000	98.374328 
3560.000000	98.371487 
3559.000000	98.371913 
3558.000000	98.377319 
3557.000000	98.386609 
3556.000000	98.399156 
3555.000000	98.415123 
3554.000000	98.433873 
3553.000000	98.454804 
3552.000000	98.478176 
3551.000000	98.503471 
3550.000000	98.526751 
3549.000000	98.541046 
3548.000000	98.540155 
3547.000000	98.524537 
3546.000000	98.503916 
3545.000000	98.491476 
3544.000000	98.492534 
3543.000000	98.500460 
3542.000000	98.504870 
3541.000000	98.502495 
3540.000000	98.499030 
3539.000000	98.502464 
3538.000000	98.516174 
3537.000000	98.538323 
3536.000000	98.564209 
3535.000000	98.587986 
3534.000000	98.604450 
3533.000000	98.612313 
3532.000000	98.616139 
3531.000000	98.622687 
3530.000000	98.634306 
3529.000000	98.646037 
3528.000000	98.650115 
3527.000000	98.643523 
3526.000000	98.631130 
3525.000000	98.621789 
3524.000000	98.622229 
3523.000000	98.633718 
3522.000000	98.652620 
3521.000000	98.672577 
3520.000000	98.686893 
3519.000000	98.692434 
3518.000000	98.692928 
3517.000000	98.697015 
3516.000000	98.710225 
3515.000000	98.729255 
3514.000000	98.746004 
3513.000000	98.756416 
3512.000000	98.762757 
3511.000000	98.767253 
3510.000000	98.767182 
3509.000000	98.758871 
3508.000000	98.744665 
3507.000000	98.732996 
3506.000000	98.731214 
3505.000000	98.739553 
3504.000000	98.751241 
3503.000000	98.758722 
3502.000000	98.759944 
3501.000000	98.758253 
3500.000000	98.756841 
3499.000000	98.754984 
3498.000000	98.750939 
3497.000000	98.747092 
3496.000000	98.749645 
3495.000000	98.761878 
3494.000000	98.779491 
3493.000000	98.793823 
3492.000000	98.798396 
3491.000000	98.791979 
3490.000000	98.778150 
3489.000000	98.764007 
3488.000000	98.757256 
3487.000000	98.760842 
3486.000000	98.770101 
3485.000000	98.777421 
3484.000000	98.779224 
3483.000000	98.776271 
3482.000000	98.768537 
3481.000000	98.754701 
3480.000000	98.738561 
3479.000000	98.731342 
3478.000000	98.742379 
3477.000000	98.767492 
3476.000000	98.790300 
3475.000000	98.796880 
3474.000000	98.788356 
3473.000000	98.778023 
3472.000000	98.777887 
3471.000000	98.789066 
3470.000000	98.803625 
3469.000000	98.813722 
3468.000000	98.819071 
3467.000000	98.826701 
3466.000000	98.842744 
3465.000000	98.863795 
3464.000000	98.877449 
3463.000000	98.873539 
3462.000000	98.855630 
3461.000000	98.839434 
3460.000000	98.839003 
3459.000000	98.855193 
3458.000000	98.877346 
3457.000000	98.893976 
3456.000000	98.899843 
3455.000000	98.895516 
3454.000000	98.884674 
3453.000000	98.873191 
3452.000000	98.868083 
3451.000000	98.873335 
3450.000000	98.886056 
3449.000000	98.897674 
3448.000000	98.900184 
3447.000000	98.892109 
3446.000000	98.879035 
3445.000000	98.868300 
3444.000000	98.863358 
3443.000000	98.862813 
3442.000000	98.863526 
3441.000000	98.864069 
3440.000000	98.865478 
3439.000000	98.869860 
3438.000000	98.878653 
3437.000000	98.890766 
3436.000000	98.901216 
3435.000000	98.903355 
3434.000000	98.894673 
3433.000000	98.880180 
3432.000000	98.868689 
3431.000000	98.865549 
3430.000000	98.870213 
3429.000000	98.879230 
3428.000000	98.888964 
3427.000000	98.896047 
3426.000000	98.898592 
3425.000000	98.898154 
3424.000000	98.898308 
3423.000000	98.900206 
3422.000000	98.900878 
3421.000000	98.896765 
3420.000000	98.887406 
3419.000000	98.875216 
3418.000000	98.863349 
3417.000000	98.854408 
3416.000000	98.849487 
3415.000000	98.847552 
3414.000000	98.847061 
3413.000000	98.848725 
3412.000000	98.854785 
3411.000000	98.864604 
3410.000000	98.872983 
3409.000000	98.874688 
3408.000000	98.869800 
3407.000000	98.862977 
3406.000000	98.857511 
3405.000000	98.851646 
3404.000000	98.841223 
3403.000000	98.825442 
3402.000000	98.809207 
3401.000000	98.799248 
3400.000000	98.798202 
3399.000000	98.802951 
3398.000000	98.807894 
3397.000000	98.808094 
3396.000000	98.799717 
3395.000000	98.781252 
3394.000000	98.757333 
3393.000000	98.739346 
3392.000000	98.737734 
3391.000000	98.752410 
3390.000000	98.772511 
3389.000000	98.785695 
3388.000000	98.786699 
3387.000000	98.778758 
3386.000000	98.770349 
3385.000000	98.770173 
3384.000000	98.780855 
3383.000000	98.795254 
3382.000000	98.801404 
3381.000000	98.793364 
3380.000000	98.776530 
3379.000000	98.761490 
3378.000000	98.754058 
3377.000000	98.752241 
3376.000000	98.751008 
3375.000000	98.747704 
3374.000000	98.743166 
3373.000000	98.739425 
3372.000000	98.737151 
3371.000000	98.735318 
3370.000000	98.733316 
3369.000000	98.732745 
3368.000000	98.736194 
3367.000000	98.744684 
3366.000000	98.757241 
3365.000000	98.771935 
3364.000000	98.785349 
3363.000000	98.792032 
3362.000000	98.788072 
3361.000000	98.775976 
3360.000000	98.762759 
3359.000000	98.752024 
3358.000000	98.740942 
3357.000000	98.726848 
3356.000000	98.713450 
3355.000000	98.706849 
3354.000000	98.706980 
3353.000000	98.706931 
3352.000000	98.700979 
3351.000000	98.690981 
3350.000000	98.684360 
3349.000000	98.686867 
3348.000000	98.696904 
3347.000000	98.705983 
3346.000000	98.705808 
3345.000000	98.696666 
3344.000000	98.688252 
3343.000000	98.690027 
3342.000000	98.700587 
3341.000000	98.708063 
3340.000000	98.701493 
3339.000000	98.681169 
3338.000000	98.657758 
3337.000000	98.642376 
3336.000000	98.637882 
3335.000000	98.639023 
3334.000000	98.639650 
3333.000000	98.638003 
3332.000000	98.634419 
3331.000000	98.626525 
3330.000000	98.611115 
3329.000000	98.591574 
3328.000000	98.578796 
3327.000000	98.580539 
3326.000000	98.591643 
3325.000000	98.599134 
3324.000000	98.596496 
3323.000000	98.588545 
3322.000000	98.581247 
3321.000000	98.571507 
3320.000000	98.550937 
3319.000000	98.517868 
3318.000000	98.481371 
3317.000000	98.452551 
3316.000000	98.434735 
3315.000000	98.423660 
3314.000000	98.415058 
3313.000000	98.408763 
3312.000000	98.405097 
3311.000000	98.400177 
3310.000000	98.387538 
3309.000000	98.364579 
3308.000000	98.335762 
3307.000000	98.308379 
3306.000000	98.285437 
3305.000000	98.263323 
3304.000000	98.236663 
3303.000000	98.205333 
3302.000000	98.175960 
3301.000000	98.155590 
3300.000000	98.143938 
3299.000000	98.133278 
3298.000000	98.116474 
3297.000000	98.093675 
3296.000000	98.070300 
3295.000000	98.050257 
3294.000000	98.033315 
3293.000000	98.017768 
3292.000000	98.002522 
3291.000000	97.986489 
3290.000000	97.968777 
3289.000000	97.950697 
3288.000000	97.935642 
3287.000000	97.925326 
3286.000000	97.916754 
3285.000000	97.903752 
3284.000000	97.881520 
3283.000000	97.850337 
3282.000000	97.816142 
3281.000000	97.787380 
3280.000000	97.769451 
3279.000000	97.761417 
3278.000000	97.758643 
3277.000000	97.758252 
3276.000000	97.760781 
3275.000000	97.766780 
3274.000000	97.773674 
3273.000000	97.776237 
3272.000000	97.768628 
3271.000000	97.746292 
3270.000000	97.708748 
3269.000000	97.662119 
3268.000000	97.617406 
3267.000000	97.584271 
3266.000000	97.565690 
3265.000000	97.557488 
3264.000000	97.551802 
3263.000000	97.541969 
3262.000000	97.526901 
3261.000000	97.511328 
3260.000000	97.499536 
3259.000000	97.488469 
3258.000000	97.469652 
3257.000000	97.439355 
3256.000000	97.404225 
3255.000000	97.374416 
3254.000000	97.352651 
3253.000000	97.332696 
3252.000000	97.307966 
3251.000000	97.278826 
3250.000000	97.250802 
3249.000000	97.227472 
3248.000000	97.206803 
3247.000000	97.184417 
3246.000000	97.159052 
3245.000000	97.133365 
3244.000000	97.109550 
3243.000000	97.086272 
3242.000000	97.061165 
3241.000000	97.034234 
3240.000000	97.006372 
3239.000000	96.976208 
3238.000000	96.942068 
3237.000000	96.906895 
3236.000000	96.877253 
3235.000000	96.856191 
3234.000000	96.839806 
3233.000000	96.821738 
3232.000000	96.798121 
3231.000000	96.767195 
3230.000000	96.728493 
3229.000000	96.685698 
3228.000000	96.647428 
3227.000000	96.620873 
3226.000000	96.605142 
3225.000000	96.593392 
3224.000000	96.580393 
3223.000000	96.565126 
3222.000000	96.547082 
3221.000000	96.523990 
3220.000000	96.494425 
3219.000000	96.460189 
3218.000000	96.424517 
3217.000000	96.389127 
3216.000000	96.354044 
3215.000000	96.319673 
3214.000000	96.288100 
3213.000000	96.262066 
3212.000000	96.242158 
3211.000000	96.224578 
3210.000000	96.202672 
3209.000000	96.172083 
3208.000000	96.134275 
3207.000000	96.093845 
3206.000000	96.052706 
3205.000000	96.008490 
3204.000000	95.958975 
3203.000000	95.906216 
3202.000000	95.854494 
3201.000000	95.804746 
3200.000000	95.753491 
3199.000000	95.698914 
3198.000000	95.646385 
3197.000000	95.604310 
3196.000000	95.572916 
3195.000000	95.539938 
3194.000000	95.490805 
3193.000000	95.422915 
3192.000000	95.347416 
3191.000000	95.276758 
3190.000000	95.213107 
3189.000000	95.149473 
3188.000000	95.079068 
3187.000000	95.000895 
3186.000000	94.917989 
3185.000000	94.833954 
3184.000000	94.752321 
3183.000000	94.677073 
3182.000000	94.610849 
3181.000000	94.551727 
3180.000000	94.493080 
3179.000000	94.428506 
3178.000000	94.357032 
3177.000000	94.281944 
3176.000000	94.204845 
3175.000000	94.124193 
3174.000000	94.040969 
3173.000000	93.961800 
3172.000000	93.892482 
3171.000000	93.830472 
3170.000000	93.768484 
3169.000000	93.704593 
3168.000000	93.643643 
3167.000000	93.588097 
3166.000000	93.532807 
3165.000000	93.471181 
3164.000000	93.402539 
3163.000000	93.330596 
3162.000000	93.257687 
3161.000000	93.183457 
3160.000000	93.106962 
3159.000000	93.027336 
3158.000000	92.944494 
3157.000000	92.861854 
3156.000000	92.785952 
3155.000000	92.719446 
3154.000000	92.655361 
3153.000000	92.582067 
3152.000000	92.494654 
3151.000000	92.399015 
3150.000000	92.304204 
3149.000000	92.213034 
3148.000000	92.121289 
3147.000000	92.024512 
3146.000000	91.923402 
3145.000000	91.821814 
3144.000000	91.720240 
3143.000000	91.613098 
3142.000000	91.493729 
3141.000000	91.361132 
3140.000000	91.219945 
3139.000000	91.074249 
3138.000000	90.923926 
3137.000000	90.767842 
3136.000000	90.608149 
3135.000000	90.449299 
3134.000000	90.293234 
3133.000000	90.136494 
3132.000000	89.971862 
3131.000000	89.793167 
3130.000000	89.600073 
3129.000000	89.398842 
3128.000000	89.197321 
3127.000000	88.998354 
3126.000000	88.798309 
3125.000000	88.590997 
3124.000000	88.371390 
3123.000000	88.137415 
3122.000000	87.892656 
3121.000000	87.647703 
3120.000000	87.413677 
3119.000000	87.191183 
3118.000000	86.968258 
3117.000000	86.732156 
3116.000000	86.481361 
3115.000000	86.224067 
3114.000000	85.968184 
3113.000000	85.716911 
3112.000000	85.471768 
3111.000000	85.234132 
3110.000000	85.002728 
3109.000000	84.773616 
3108.000000	84.544667 
3107.000000	84.317815 
3106.000000	84.095189 
3105.000000	83.874642 
3104.000000	83.651330 
3103.000000	83.423512 
3102.000000	83.195133 
3101.000000	82.971647 
3100.000000	82.753460 
3099.000000	82.534518 
3098.000000	82.307894 
3097.000000	82.072540 
3096.000000	81.834394 
3095.000000	81.601072 
3094.000000	81.375345 
3093.000000	81.153063 
3092.000000	80.927212 
3091.000000	80.695237 
3090.000000	80.463169 
3089.000000	80.241292 
3088.000000	80.034665 
3087.000000	79.839045 
3086.000000	79.647534 
3085.000000	79.459699 
3084.000000	79.281902 
3083.000000	79.119977 
3082.000000	78.974445 
3081.000000	78.842716 
3080.000000	78.723055 
3079.000000	78.615620 
3078.000000	78.521716 
3077.000000	78.443346 
3076.000000	78.382643 
3075.000000	78.341188 
3074.000000	78.320054 
3073.000000	78.319632 
3072.000000	78.338542 
3071.000000	78.373847 
3070.000000	78.423842 
3069.000000	78.489287 
3068.000000	78.569670 
3067.000000	78.659509 
3066.000000	78.751528 
3065.000000	78.843523 
3064.000000	78.939466 
3063.000000	79.043631 
3062.000000	79.156244 
3061.000000	79.275089 
3060.000000	79.398054 
3059.000000	79.522358 
3058.000000	79.643437 
3057.000000	79.757409 
3056.000000	79.864946 
3055.000000	79.971265 
3054.000000	80.081167 
3053.000000	80.193599 
3052.000000	80.301486 
3051.000000	80.398182 
3050.000000	80.484438 
3049.000000	80.567818 
3048.000000	80.654872 
3047.000000	80.745861 
3046.000000	80.837822 
3045.000000	80.929226 
3044.000000	81.018501 
3043.000000	81.100352 
3042.000000	81.168398 
3041.000000	81.222277 
3040.000000	81.269589 
3039.000000	81.320204 
3038.000000	81.379693 
3037.000000	81.446711 
3036.000000	81.513868 
3035.000000	81.571835 
3034.000000	81.616067 
3033.000000	81.650283 
3032.000000	81.681805 
3031.000000	81.714725 
3030.000000	81.750309 
3029.000000	81.791903 
3028.000000	81.843425 
3027.000000	81.902058 
3026.000000	81.958032 
3025.000000	82.004964 
3024.000000	82.047040 
3023.000000	82.092645 
3022.000000	82.143418 
3021.000000	82.193100 
3020.000000	82.235626 
3019.000000	82.271371 
3018.000000	82.306043 
3017.000000	82.345307 
3016.000000	82.389278 
3015.000000	82.430241 
3014.000000	82.456800 
3013.000000	82.462586 
3012.000000	82.450619 
3011.000000	82.427494 
3010.000000	82.393409 
3009.000000	82.338770 
3008.000000	82.249738 
3007.000000	82.117428 
3006.000000	81.946442 
3005.000000	81.760580 
3004.000000	81.600822 
3003.000000	81.510907 
3002.000000	81.516413 
3001.000000	81.611308 
3000.000000	81.762342 
2999.000000	81.927001 
2998.000000	82.070702 
2997.000000	82.171919 
2996.000000	82.216123 
2995.000000	82.189020 
2994.000000	82.076334 
2993.000000	81.868438 
2992.000000	81.565644 
2991.000000	81.183994 
2990.000000	80.761747 
2989.000000	80.358512 
2988.000000	80.037855 
2987.000000	79.840617 
2986.000000	79.770502 
2985.000000	79.805252 
2984.000000	79.920321 
2983.000000	80.101620 
2982.000000	80.339646 
2981.000000	80.617746 
2980.000000	80.909070 
2979.000000	81.183510 
2978.000000	81.417077 
2977.000000	81.597730 
2976.000000	81.726401 
2975.000000	81.813821 
2974.000000	81.874878 
2973.000000	81.924659 
2972.000000	81.978155 
2971.000000	82.049983 
2970.000000	82.149313 
2969.000000	82.273040 
2968.000000	82.406407 
2967.000000	82.533120 
2966.000000	82.645195 
2965.000000	82.742985 
2964.000000	82.828405 
2963.000000	82.900504 
2962.000000	82.955788 
2961.000000	82.989237 
2960.000000	82.994860 
2959.000000	82.968246 
2958.000000	82.909504 
2957.000000	82.822101 
2956.000000	82.709459 
2955.000000	82.576106 
2954.000000	82.432777 
2953.000000	82.296271 
2952.000000	82.180848 
2951.000000	82.090790 
2950.000000	82.022708 
2949.000000	81.972554 
2948.000000	81.937216 
2947.000000	81.910749 
2946.000000	81.883183 
2945.000000	81.844852 
2944.000000	81.791480 
2943.000000	81.725436 
2942.000000	81.653428 
2941.000000	81.582796 
2940.000000	81.518091 
2939.000000	81.459294 
2938.000000	81.402402 
2937.000000	81.341602 
2936.000000	81.272229 
2935.000000	81.193963 
2934.000000	81.111678 
2933.000000	81.031656 
2932.000000	80.956143 
2931.000000	80.882851 
2930.000000	80.810061 
2929.000000	80.740212 
2928.000000	80.677521 
2927.000000	80.623579 
2926.000000	80.576375 
2925.000000	80.532257 
2924.000000	80.488283 
2923.000000	80.444595 
2922.000000	80.405445 
2921.000000	80.375957 
2920.000000	80.356813 
2919.000000	80.343955 
2918.000000	80.334428 
2917.000000	80.330379 
2916.000000	80.336076 
2915.000000	80.352997 
2914.000000	80.378982 
2913.000000	80.410052 
2912.000000	80.441687 
2911.000000	80.470739 
2910.000000	80.497906 
2909.000000	80.526345 
2908.000000	80.556271 
2907.000000	80.583316 
2906.000000	80.604165 
2905.000000	80.621236 
2904.000000	80.638695 
2903.000000	80.656018 
2902.000000	80.667671 
2901.000000	80.669371 
2900.000000	80.660872 
2899.000000	80.644287 
2898.000000	80.622656 
2897.000000	80.598802 
2896.000000	80.572848 
2895.000000	80.540807 
2894.000000	80.497977 
2893.000000	80.443711 
2892.000000	80.381375 
2891.000000	80.314713 
2890.000000	80.246220 
2889.000000	80.177666 
2888.000000	80.109265 
2887.000000	80.038710 
2886.000000	79.963788 
2885.000000	79.886323 
2884.000000	79.811767 
2883.000000	79.744879 
2882.000000	79.687005 
2881.000000	79.636451 
2880.000000	79.589313 
2879.000000	79.540772 
2878.000000	79.488282 
2877.000000	79.433941 
2876.000000	79.382041 
2875.000000	79.334439 
2874.000000	79.289856 
2873.000000	79.247062 
2872.000000	79.206445 
2871.000000	79.168276 
2870.000000	79.131234 
2869.000000	79.093087 
2868.000000	79.051990 
2867.000000	79.007590 
2866.000000	78.962306 
2865.000000	78.921069 
2864.000000	78.888007 
2863.000000	78.862977 
2862.000000	78.841885 
2861.000000	78.819923 
2860.000000	78.794268 
2859.000000	78.765596 
2858.000000	78.739102 
2857.000000	78.723078 
2856.000000	78.724260 
2855.000000	78.744071 
2854.000000	78.779639 
2853.000000	78.826960 
2852.000000	78.881891 
2851.000000	78.939860 
2850.000000	78.996954 
2849.000000	79.051173 
2848.000000	79.101658 
2847.000000	79.147734 
2846.000000	79.189794 
2845.000000	79.229371 
2844.000000	79.266380 
2843.000000	79.297574 
2842.000000	79.319852 
2841.000000	79.334055 
2840.000000	79.343122 
2839.000000	79.347133 
2838.000000	79.342759 
2837.000000	79.327823 
2836.000000	79.304305 
2835.000000	79.276175 
2834.000000	79.245278 
2833.000000	79.209608 
2832.000000	79.165128 
2831.000000	79.109801 
2830.000000	79.046592 
2829.000000	78.981640 
2828.000000	78.918542 
2827.000000	78.855086 
2826.000000	78.786284 
2825.000000	78.709138 
2824.000000	78.623185 
2823.000000	78.528185 
2822.000000	78.423879 
2821.000000	78.311956 
2820.000000	78.196519 
2819.000000	78.082313 
2818.000000	77.973012 
2817.000000	77.870617 
2816.000000	77.775798 
2815.000000	77.689252 
2814.000000	77.612784 
2813.000000	77.547866 
2812.000000	77.493188 
2811.000000	77.445771 
2810.000000	77.405051 
2809.000000	77.373476 
2808.000000	77.351938 
2807.000000	77.336945 
2806.000000	77.323858 
2805.000000	77.310972 
2804.000000	77.299272 
2803.000000	77.290761 
2802.000000	77.288647 
2801.000000	77.296296 
2800.000000	77.313081 
2799.000000	77.332916 
2798.000000	77.349210 
2797.000000	77.359987 
2796.000000	77.366997 
2795.000000	77.372692 
2794.000000	77.380705 
2793.000000	77.396422 
2792.000000	77.423013 
2791.000000	77.457797 
2790.000000	77.495423 
2789.000000	77.533660 
2788.000000	77.573502 
2787.000000	77.614978 
2786.000000	77.656162 
2785.000000	77.695746 
2784.000000	77.733906 
2783.000000	77.770869 
2782.000000	77.806574 
2781.000000	77.840972 
2780.000000	77.872800 
2779.000000	77.899254 
2778.000000	77.918843 
2777.000000	77.933072 
2776.000000	77.943169 
2775.000000	77.946994 
2774.000000	77.941953 
2773.000000	77.929259 
2772.000000	77.912114 
2771.000000	77.891199 
2770.000000	77.865554 
2769.000000	77.836691 
2768.000000	77.807821 
2767.000000	77.779437 
2766.000000	77.749460 
2765.000000	77.717578 
2764.000000	77.685222 
2763.000000	77.650351 
2762.000000	77.606000 
2761.000000	77.545992 
2760.000000	77.470222 
2759.000000	77.383169 
2758.000000	77.288704 
2757.000000	77.187060 
2756.000000	77.075506 
2755.000000	76.951454 
2754.000000	76.815491 
2753.000000	76.670841 
2752.000000	76.519180 
2751.000000	76.358760 
2750.000000	76.188608 
2749.000000	76.012739 
2748.000000	75.837262 
2747.000000	75.664637 
2746.000000	75.494331 
2745.000000	75.328484 
2744.000000	75.172773 
2743.000000	75.030880 
2742.000000	74.901450 
2741.000000	74.781947 
2740.000000	74.673162 
2739.000000	74.578403 
2738.000000	74.499700 
2737.000000	74.435967 
2736.000000	74.383918 
2735.000000	74.340057 
2734.000000	74.302507 
2733.000000	74.271631 
2732.000000	74.249248 
2731.000000	74.238083 
2730.000000	74.242142 
2729.000000	74.265555 
2728.000000	74.308812 
2727.000000	74.366555 
2726.000000	74.430805 
2725.000000	74.496610 
2724.000000	74.564323 
2723.000000	74.637648 
2722.000000	74.720800 
2721.000000	74.816332 
2720.000000	74.923494 
2719.000000	75.038445 
2718.000000	75.156904 
2717.000000	75.276432 
2716.000000	75.396474 
2715.000000	75.518138 
2714.000000	75.644761 
2713.000000	75.780225 
2712.000000	75.924614 
2711.000000	76.073427 
2710.000000	76.223714 
2709.000000	76.379788 
2708.000000	76.550307 
2707.000000	76.740509 
2706.000000	76.949439 
2705.000000	77.173211 
2704.000000	77.407392 
2703.000000	77.646374 
2702.000000	77.884359 
2701.000000	78.118943 
2700.000000	78.352165 
2699.000000	78.586963 
2698.000000	78.823562 
2697.000000	79.059387 
2696.000000	79.290783 
2695.000000	79.514371 
2694.000000	79.728520 
2693.000000	79.934612 
2692.000000	80.135828 
2691.000000	80.333646 
2690.000000	80.525980 
2689.000000	80.709273 
2688.000000	80.882013 
2687.000000	81.045789 
2686.000000	81.203071 
2685.000000	81.354085 
2684.000000	81.496025 
2683.000000	81.625954 
2682.000000	81.744592 
2681.000000	81.856087 
2680.000000	81.963303 
2679.000000	82.064415 
2678.000000	82.155333 
2677.000000	82.234636 
2676.000000	82.304859 
2675.000000	82.369593 
2674.000000	82.430737 
2673.000000	82.488189 
2672.000000	82.540799 
2671.000000	82.587566 
2670.000000	82.628599 
2669.000000	82.664678 
2668.000000	82.695647 
2667.000000	82.720202 
2666.000000	82.737617 
2665.000000	82.748152 
2664.000000	82.750903 
2663.000000	82.743055 
2662.000000	82.722955 
2661.000000	82.692722 
2660.000000	82.656166 
2659.000000	82.614676 
2658.000000	82.565745 
2657.000000	82.503968 
2656.000000	82.422994 
2655.000000	82.319543 
2654.000000	82.197900 
2653.000000	82.068279 
2652.000000	81.938252 
2651.000000	81.807336 
2650.000000	81.671426 
2649.000000	81.528898 
2648.000000	81.379035 
2647.000000	81.218496 
2646.000000	81.045539 
2645.000000	80.866581 
2644.000000	80.692781 
2643.000000	80.529392 
2642.000000	80.372142 
2641.000000	80.213817 
2640.000000	80.050567 
2639.000000	79.882486 
2638.000000	79.713024 
2637.000000	79.548513 
2636.000000	79.393741 
2635.000000	79.246409 
2634.000000	79.098873 
2633.000000	78.946175 
2632.000000	78.789883 
2631.000000	78.634347 
2630.000000	78.482546 
2629.000000	78.335294 
2628.000000	78.190341 
2627.000000	78.041620 
2626.000000	77.883390 
2625.000000	77.716484 
2624.000000	77.547554 
2623.000000	77.381354 
2622.000000	77.216808 
2621.000000	77.051149 
2620.000000	76.884231 
2619.000000	76.717455 
2618.000000	76.551631 
2617.000000	76.387552 
2616.000000	76.225860 
2615.000000	76.064146 
2614.000000	75.895774 
2613.000000	75.713534 
2612.000000	75.514818 
2611.000000	75.304008 
2610.000000	75.090992 
2609.000000	74.886027 
2608.000000	74.693315 
2607.000000	74.509987 
2606.000000	74.333972 
2605.000000	74.172385 
2604.000000	74.038895 
2603.000000	73.942077 
2602.000000	73.878790 
2601.000000	73.839795 
2600.000000	73.819844 
2599.000000	73.821074 
2598.000000	73.847949 
2597.000000	73.900881 
2596.000000	73.975624 
2595.000000	74.068762 
2594.000000	74.182806 
2593.000000	74.324338 
2592.000000	74.496528 
2591.000000	74.694072 
2590.000000	74.905658 
2589.000000	75.121171 
2588.000000	75.337567 
2587.000000	75.559332 
2586.000000	75.792809 
2585.000000	76.038549 
2584.000000	76.289585 
2583.000000	76.538378 
2582.000000	76.783528 
2581.000000	77.026691 
2580.000000	77.264778 
2579.000000	77.490613 
2578.000000	77.701984 
2577.000000	77.904892 
2576.000000	78.105645 
2575.000000	78.304152 
2574.000000	78.497744 
2573.000000	78.686688 
2572.000000	78.870596 
2571.000000	79.042181 
2570.000000	79.191128 
2569.000000	79.315204 
2568.000000	79.423513 
2567.000000	79.527099 
2566.000000	79.628483 
2565.000000	79.721425 
2564.000000	79.799048 
2563.000000	79.860656 
2562.000000	79.911375 
2561.000000	79.957056 
2560.000000	80.000807 
2559.000000	80.043512 
2558.000000	80.084233 
2557.000000	80.118005 
2556.000000	80.136641 
2555.000000	80.136844 
2554.000000	80.126625 
2553.000000	80.118302 
2552.000000	80.114641 
2551.000000	80.106864 
2550.000000	80.086389 
2549.000000	80.051718 
2548.000000	80.002180 
2547.000000	79.933572 
2546.000000	79.846302 
2545.000000	79.752386 
2544.000000	79.667185 
2543.000000	79.596600 
2542.000000	79.537230 
2541.000000	79.485457 
2540.000000	79.440321 
2539.000000	79.400264 
2538.000000	79.364003 
2537.000000	79.333983 
2536.000000	79.313362 
2535.000000	79.299927 
2534.000000	79.288334 
2533.000000	79.278679 
2532.000000	79.277894 
2531.000000	79.290879 
2530.000000	79.313258 
2529.000000	79.334759 
2528.000000	79.348642 
2527.000000	79.357320 
2526.000000	79.369290 
2525.000000	79.390189 
2524.000000	79.416488 
2523.000000	79.439178 
2522.000000	79.454374 
2521.000000	79.468877 
2520.000000	79.494874 
2519.000000	79.540898 
2518.000000	79.608077 
2517.000000	79.692272 
2516.000000	79.788587 
2515.000000	79.895859 
2514.000000	80.017730 
2513.000000	80.157968 
2512.000000	80.315144 
2511.000000	80.483757 
2510.000000	80.658817 
2509.000000	80.836071 
2508.000000	81.010747 
2507.000000	81.182688 
2506.000000	81.361802 
2505.000000	81.560407 
2504.000000	81.778003 
2503.000000	81.999877 
2502.000000	82.212469 
2501.000000	82.413461 
2500.000000	82.604923 
2499.000000	82.785042 
2498.000000	82.951719 
2497.000000	83.107459 
2496.000000	83.254496 
2495.000000	83.390136 
2494.000000	83.512486 
2493.000000	83.625571 
2492.000000	83.732366 
2491.000000	83.827480 
2490.000000	83.904083 
2489.000000	83.964827 
2488.000000	84.018823 
2487.000000	84.070549 
2486.000000	84.118907 
2485.000000	84.165059 
2484.000000	84.213531 
2483.000000	84.266016 
2482.000000	84.320282 
2481.000000	84.374686 
2480.000000	84.428445 
2479.000000	84.479299 
2478.000000	84.527797 
2477.000000	84.583353 
2476.000000	84.658513 
2475.000000	84.755474 
2474.000000	84.863718 
2473.000000	84.972540 
2472.000000	85.081206 
2471.000000	85.195185 
2470.000000	85.317202 
2469.000000	85.444953 
2468.000000	85.574266 
2467.000000	85.700818 
2466.000000	85.819851 
2465.000000	85.927679 
2464.000000	86.025057 
2463.000000	86.118114 
2462.000000	86.213627 
2461.000000	86.311839 
2460.000000	86.405531 
2459.000000	86.488866 
2458.000000	86.565794 
2457.000000	86.645435 
2456.000000	86.729546 
2455.000000	86.810075 
2454.000000	86.880523 
2453.000000	86.944430 
2452.000000	87.010747 
2451.000000	87.086371 
2450.000000	87.175105 
2449.000000	87.276291 
2448.000000	87.379584 
2447.000000	87.468136 
2446.000000	87.534031 
2445.000000	87.586449 
2444.000000	87.639055 
2443.000000	87.694476 
2442.000000	87.747558 
2441.000000	87.797959 
2440.000000	87.850274 
2439.000000	87.905083 
2438.000000	87.959471 
2437.000000	88.015355 
2436.000000	88.078571 
2435.000000	88.149080 
2434.000000	88.218804 
2433.000000	88.279945 
2432.000000	88.330821 
2431.000000	88.374361 
2430.000000	88.416169 
2429.000000	88.463370 
2428.000000	88.520319 
2427.000000	88.585660 
2426.000000	88.656641 
2425.000000	88.733401 
2424.000000	88.814918 
2423.000000	88.894947 
2422.000000	88.968181 
2421.000000	89.036964 
2420.000000	89.105424 
2419.000000	89.170985 
2418.000000	89.229745 
2417.000000	89.286748 
2416.000000	89.351148 
2415.000000	89.422622 
2414.000000	89.492257 
2413.000000	89.555935 
2412.000000	89.616404 
2411.000000	89.671774 
2410.000000	89.713784 
2409.000000	89.741562 
2408.000000	89.766975 
2407.000000	89.799645 
2406.000000	89.833691 
2405.000000	89.856541 
2404.000000	89.867144 
2403.000000	89.879422 
2402.000000	89.909089 
2401.000000	89.960822 
2400.000000	90.027047 
2399.000000	90.096265 
2398.000000	90.161993 
2397.000000	90.224008 
2396.000000	90.282264 
2395.000000	90.333340 
2394.000000	90.375329 
2393.000000	90.412727 
2392.000000	90.451773 
2391.000000	90.492995 
2390.000000	90.533464 
2389.000000	90.574845 
2388.000000	90.623476 
2387.000000	90.682892 
2386.000000	90.751499 
2385.000000	90.827361 
2384.000000	90.909408 
2383.000000	90.992810 
2382.000000	91.068829 
2381.000000	91.132618 
2380.000000	91.188021 
2379.000000	91.242008 
2378.000000	91.296618 
2377.000000	91.347416 
2376.000000	91.388515 
2375.000000	91.419253 
2374.000000	91.449169 
2373.000000	91.493363 
2372.000000	91.555786 
2371.000000	91.620581 
2370.000000	91.669588 
2369.000000	91.703336 
2368.000000	91.731296 
2367.000000	91.748333 
2366.000000	91.743568 
2365.000000	91.730360 
2364.000000	91.744200 
2363.000000	91.806506 
2362.000000	91.902685 
2361.000000	92.003426 
2360.000000	92.085009 
2359.000000	92.122809 
2358.000000	92.110067 
2357.000000	92.076534 
2356.000000	92.068405 
2355.000000	92.104985 
2354.000000	92.165043 
2353.000000	92.221661 
2352.000000	92.259884 
2351.000000	92.281806 
2350.000000	92.302261 
2349.000000	92.332889 
2348.000000	92.377098 
2347.000000	92.417720 
2346.000000	92.435819 
2345.000000	92.430353 
2344.000000	92.420549 
2343.000000	92.424937 
2342.000000	92.438435 
2341.000000	92.459762 
2340.000000	92.493967 
2339.000000	92.538613 
2338.000000	92.576455 
2337.000000	92.593647 
2336.000000	92.590324 
2335.000000	92.577056 
2334.000000	92.562277 
2333.000000	92.555581 
2332.000000	92.558615 
2331.000000	92.564152 
2330.000000	92.562174 
2329.000000	92.545435 
2328.000000	92.517579 
2327.000000	92.475944 
2326.000000	92.424233 
2325.000000	92.378274 
2324.000000	92.360327 
2323.000000	92.379425 
2322.000000	92.414367 
2321.000000	92.441346 
2320.000000	92.450539 
2319.000000	92.450333 
2318.000000	92.449251 
2317.000000	92.453126 
2316.000000	92.463597 
2315.000000	92.478707 
2314.000000	92.494618 
2313.000000	92.507513 
2312.000000	92.512517 
2311.000000	92.501850 
2310.000000	92.473912 
2309.000000	92.438570 
2308.000000	92.408637 
2307.000000	92.384716 
2306.000000	92.356915 
2305.000000	92.319757 
2304.000000	92.277533 
2303.000000	92.237365 
2302.000000	92.202633 
2301.000000	92.175367 
2300.000000	92.157376 
2299.000000	92.147597 
2298.000000	92.143680 
2297.000000	92.144857 
2296.000000	92.151841 
2295.000000	92.163149 
2294.000000	92.179086 
2293.000000	92.203367 
2292.000000	92.236996 
2291.000000	92.271890 
2290.000000	92.299375 
2289.000000	92.322055 
2288.000000	92.350075 
2287.000000	92.387755 
2286.000000	92.431410 
2285.000000	92.477874 
2284.000000	92.525742 
2283.000000	92.571063 
2282.000000	92.610820 
2281.000000	92.648736 
2280.000000	92.686371 
2279.000000	92.712697 
2278.000000	92.716201 
2277.000000	92.706338 
2276.000000	92.705540 
2275.000000	92.718105 
2274.000000	92.723292 
2273.000000	92.702806 
2272.000000	92.661064 
2271.000000	92.613895 
2270.000000	92.572271 
2269.000000	92.542042 
2268.000000	92.525040 
2267.000000	92.513840 
2266.000000	92.497696 
2265.000000	92.480626 
2264.000000	92.483552 
2263.000000	92.521429 
2262.000000	92.586462 
2261.000000	92.657490 
2260.000000	92.720376 
2259.000000	92.779465 
2258.000000	92.855851 
2257.000000	92.972530 
2256.000000	93.129669 
2255.000000	93.295864 
2254.000000	93.433343 
2253.000000	93.529884 
2252.000000	93.597077 
2251.000000	93.646567 
2250.000000	93.685917 
2249.000000	93.730479 
2248.000000	93.794644 
2247.000000	93.870645 
2246.000000	93.936786 
2245.000000	93.987058 
2244.000000	94.033392 
2243.000000	94.079650 
2242.000000	94.117801 
2241.000000	94.151735 
2240.000000	94.199223 
2239.000000	94.264082 
2238.000000	94.328795 
2237.000000	94.379199 
2236.000000	94.413300 
2235.000000	94.423463 
2234.000000	94.400528 
2233.000000	94.364751 
2232.000000	94.360330 
2231.000000	94.402970 
2230.000000	94.459667 
2229.000000	94.497136 
2228.000000	94.524780 
2227.000000	94.569042 
2226.000000	94.627558 
2225.000000	94.673015 
2224.000000	94.688420 
2223.000000	94.679118 
2222.000000	94.660968 
2221.000000	94.651048 
2220.000000	94.658181 
2219.000000	94.672155 
2218.000000	94.675938 
2217.000000	94.675062 
2216.000000	94.695304 
2215.000000	94.742627 
2214.000000	94.788570 
2213.000000	94.808257 
2212.000000	94.810086 
2211.000000	94.812317 
2210.000000	94.813188 
2209.000000	94.803462 
2208.000000	94.788546 
2207.000000	94.777468 
2206.000000	94.765597 
2205.000000	94.747492 
2204.000000	94.733356 
2203.000000	94.735427 
2202.000000	94.749725 
2201.000000	94.764970 
2200.000000	94.777324 
2199.000000	94.784849 
2198.000000	94.781268 
2197.000000	94.766291 
2196.000000	94.747438 
2195.000000	94.722622 
2194.000000	94.679007 
2193.000000	94.619248 
2192.000000	94.568801 
2191.000000	94.545291 
2190.000000	94.540690 
2189.000000	94.544803 
2188.000000	94.562368 
2187.000000	94.590491 
2186.000000	94.602479 
2185.000000	94.578175 
2184.000000	94.535967 
2183.000000	94.511964 
2182.000000	94.515846 
2181.000000	94.523325 
2180.000000	94.504294 
2179.000000	94.447090 
2178.000000	94.364414 
2177.000000	94.284105 
2176.000000	94.223559 
2175.000000	94.170435 
2174.000000	94.101826 
2173.000000	94.017851 
2172.000000	93.935940 
2171.000000	93.859108 
2170.000000	93.778987 
2169.000000	93.707616 
2168.000000	93.670773 
2167.000000	93.662373 
2166.000000	93.638281 
2165.000000	93.568646 
2164.000000	93.470383 
2163.000000	93.382158 
2162.000000	93.343182 
2161.000000	93.400333 
2160.000000	93.578448 
2159.000000	93.815050 
2158.000000	93.980640 
2157.000000	93.998655 
2156.000000	93.895240 
2155.000000	93.723990 
2154.000000	93.509070 
2153.000000	93.272391 
2152.000000	93.056049 
2151.000000	92.888389 
2150.000000	92.758488 
2149.000000	92.643576 
2148.000000	92.535567 
2147.000000	92.425033 
2146.000000	92.287739 
2145.000000	92.110754 
2144.000000	91.912680 
2143.000000	91.718205 
2142.000000	91.527724 
2141.000000	91.326700 
2140.000000	91.111728 
2139.000000	90.895195 
2138.000000	90.693506 
2137.000000	90.517353 
2136.000000	90.364778 
2135.000000	90.222505 
2134.000000	90.083837 
2133.000000	89.961044 
2132.000000	89.865477 
2131.000000	89.780595 
2130.000000	89.674016 
2129.000000	89.537291 
2128.000000	89.397509 
2127.000000	89.286415 
2126.000000	89.212610 
2125.000000	89.166507 
2124.000000	89.136178 
2123.000000	89.111422 
2122.000000	89.085392 
2121.000000	89.062426 
2120.000000	89.057378 
2119.000000	89.079603 
2118.000000	89.121536 
2117.000000	89.166710 
2116.000000	89.205305 
2115.000000	89.240242 
2114.000000	89.282830 
2113.000000	89.343807 
2112.000000	89.423931 
2111.000000	89.512882 
2110.000000	89.601461 
2109.000000	89.693007 
2108.000000	89.797156 
2107.000000	89.914842 
2106.000000	90.036422 
2105.000000	90.151955 
2104.000000	90.256329 
2103.000000	90.348860 
2102.000000	90.437754 
2101.000000	90.540828 
2100.000000	90.669156 
2099.000000	90.811629 
2098.000000	90.947085 
2097.000000	91.068932 
2096.000000	91.185389 
2095.000000	91.299421 
2094.000000	91.405637 
2093.000000	91.506141 
2092.000000	91.610975 
2091.000000	91.720415 
2090.000000	91.822720 
2089.000000	91.913293 
2088.000000	92.002695 
2087.000000	92.101602 
2086.000000	92.209185 
2085.000000	92.318123 
2084.000000	92.420051 
2083.000000	92.507126 
2082.000000	92.581326 
2081.000000	92.659904 
2080.000000	92.755512 
2079.000000	92.854232 
2078.000000	92.933822 
2077.000000	93.000348 
2076.000000	93.079491 
2075.000000	93.169931 
2074.000000	93.237207 
2073.000000	93.265289 
2072.000000	93.285312 
2071.000000	93.336760 
2070.000000	93.423557 
2069.000000	93.523726 
2068.000000	93.620830 
2067.000000	93.708446 
2066.000000	93.780440 
2065.000000	93.834341 
2064.000000	93.873434 
2063.000000	93.896386 
2062.000000	93.899545 
2061.000000	93.893383 
2060.000000	93.894486 
2059.000000	93.896331 
2058.000000	93.875093 
2057.000000	93.831933 
2056.000000	93.797904 
2055.000000	93.783890 
2054.000000	93.759614 
2053.000000	93.704400 
2052.000000	93.648478 
2051.000000	93.638114 
2050.000000	93.681862 
2049.000000	93.754837 
2048.000000	93.839092 
2047.000000	93.930243 
2046.000000	94.015369 
2045.000000	94.077624 
2044.000000	94.118740 
2043.000000	94.153913 
2042.000000	94.190927 
2041.000000	94.229972 
2040.000000	94.271759 
2039.000000	94.311976 
2038.000000	94.343844 
2037.000000	94.378982 
2036.000000	94.444913 
2035.000000	94.546571 
2034.000000	94.651460 
2033.000000	94.726501 
2032.000000	94.765977 
2031.000000	94.773581 
2030.000000	94.753427 
2029.000000	94.735156 
2028.000000	94.765206 
2027.000000	94.848929 
2026.000000	94.936565 
2025.000000	94.989605 
2024.000000	95.026898 
2023.000000	95.080984 
2022.000000	95.146877 
2021.000000	95.204613 
2020.000000	95.258234 
2019.000000	95.317389 
2018.000000	95.365469 
2017.000000	95.379788 
2016.000000	95.364850 
2015.000000	95.338542 
2014.000000	95.308681 
2013.000000	95.287536 
2012.000000	95.300321 
2011.000000	95.351873 
2010.000000	95.410089 
2009.000000	95.450593 
2008.000000	95.495842 
2007.000000	95.578628 
2006.000000	95.684294 
2005.000000	95.762285 
2004.000000	95.783454 
2003.000000	95.761279 
2002.000000	95.729480 
2001.000000	95.716037 
2000.000000	95.726269 
1999.000000	95.737798 
1998.000000	95.724715 
1997.000000	95.693277 
1996.000000	95.677046 
1995.000000	95.695432 
1994.000000	95.740696 
1993.000000	95.807510 
1992.000000	95.903109 
1991.000000	96.015418 
1990.000000	96.100693 
1989.000000	96.122480 
1988.000000	96.083588 
1987.000000	96.010452 
1986.000000	95.928752 
1985.000000	95.862151 
1984.000000	95.825872 
1983.000000	95.808122 
1982.000000	95.784938 
1981.000000	95.764685 
1980.000000	95.789006 
1979.000000	95.873460 
1978.000000	95.980095 
1977.000000	96.073144 
1976.000000	96.163937 
1975.000000	96.269158 
1974.000000	96.363962 
1973.000000	96.409606 
1972.000000	96.397365 
1971.000000	96.342833 
1970.000000	96.266780 
1969.000000	96.201336 
1968.000000	96.181401 
1967.000000	96.205031 
1966.000000	96.228939 
1965.000000	96.222423 
1964.000000	96.199447 
1963.000000	96.187198 
1962.000000	96.193476 
1961.000000	96.213403 
1960.000000	96.237953 
1959.000000	96.245743 
1958.000000	96.217484 
1957.000000	96.171025 
1956.000000	96.153637 
1955.000000	96.187700 
1954.000000	96.247369 
1953.000000	96.297517 
1952.000000	96.329485 
1951.000000	96.349510 
1950.000000	96.359650 
1949.000000	96.363348 
1948.000000	96.367238 
1947.000000	96.365977 
1946.000000	96.349407 
1945.000000	96.332789 
1944.000000	96.351865 
1943.000000	96.412998 
1942.000000	96.474627 
1941.000000	96.501036 
1940.000000	96.505165 
1939.000000	96.518598 
1938.000000	96.551604 
1937.000000	96.596289 
1936.000000	96.644621 
1935.000000	96.688261 
1934.000000	96.715901 
1933.000000	96.726100 
1932.000000	96.729913 
1931.000000	96.734691 
1930.000000	96.738787 
1929.000000	96.744895 
1928.000000	96.761121 
1927.000000	96.782482 
1926.000000	96.795776 
1925.000000	96.803919 
1924.000000	96.823005 
1923.000000	96.850568 
1922.000000	96.863356 
1921.000000	96.858595 
1920.000000	96.864178 
1919.000000	96.897466 
1918.000000	96.937004 
1917.000000	96.952460 
1916.000000	96.945289 
1915.000000	96.933201 
1914.000000	96.920987 
1913.000000	96.909226 
1912.000000	96.905892 
1911.000000	96.915290 
1910.000000	96.928851 
1909.000000	96.939482 
1908.000000	96.952714 
1907.000000	96.971608 
1906.000000	96.990226 
1905.000000	97.007245 
1904.000000	97.027843 
1903.000000	97.047480 
1902.000000	97.050258 
1901.000000	97.032788 
1900.000000	97.010685 
1899.000000	96.994701 
1898.000000	96.983828 
1897.000000	96.985031 
1896.000000	97.012947 
1895.000000	97.061143 
1894.000000	97.099000 
1893.000000	97.111453 
1892.000000	97.116171 
1891.000000	97.133324 
1890.000000	97.160712 
1889.000000	97.187641 
1888.000000	97.213672 
1887.000000	97.237433 
1886.000000	97.250025 
1885.000000	97.255825 
1884.000000	97.273553 
1883.000000	97.303663 
1882.000000	97.319360 
1881.000000	97.304608 
1880.000000	97.277949 
1879.000000	97.262899 
1878.000000	97.259903 
1877.000000	97.261514 
1876.000000	97.269073 
1875.000000	97.280127 
1874.000000	97.281375 
1873.000000	97.269112 
1872.000000	97.256893 
1871.000000	97.251579 
1870.000000	97.242102 
1869.000000	97.223168 
1868.000000	97.210288 
1867.000000	97.212720 
1866.000000	97.214095 
1865.000000	97.200755 
1864.000000	97.183503 
1863.000000	97.173636 
1862.000000	97.160554 
1861.000000	97.132542 
1860.000000	97.100955 
1859.000000	97.082031 
1858.000000	97.072824 
1857.000000	97.065979 
1856.000000	97.068389 
1855.000000	97.085764 
1854.000000	97.106354 
1853.000000	97.117303 
1852.000000	97.125390 
1851.000000	97.139904 
1850.000000	97.153612 
1849.000000	97.158996 
1848.000000	97.163526 
1847.000000	97.174752 
1846.000000	97.185680 
1845.000000	97.192591 
1844.000000	97.205388 
1843.000000	97.228555 
1842.000000	97.252887 
1841.000000	97.270462 
1840.000000	97.285828 
1839.000000	97.307409 
1838.000000	97.336373 
1837.000000	97.370430 
1836.000000	97.408054 
1835.000000	97.439450 
1834.000000	97.447961 
1833.000000	97.433766 
1832.000000	97.422246 
1831.000000	97.436568 
1830.000000	97.467224 
1829.000000	97.490883 
1828.000000	97.511067 
1827.000000	97.541407 
1826.000000	97.572531 
1825.000000	97.586651 
1824.000000	97.584068 
1823.000000	97.577721 
1822.000000	97.569859 
1821.000000	97.560604 
1820.000000	97.565541 
1819.000000	97.595662 
1818.000000	97.632613 
1817.000000	97.645214 
1816.000000	97.626634 
1815.000000	97.594087 
1814.000000	97.558440 
1813.000000	97.522066 
1812.000000	97.494119 
1811.000000	97.483558 
1810.000000	97.481135 
1809.000000	97.469418 
1808.000000	97.449233 
1807.000000	97.433799 
1806.000000	97.426673 
1805.000000	97.422863 
1804.000000	97.421768 
1803.000000	97.425356 
1802.000000	97.428302 
1801.000000	97.428646 
1800.000000	97.437032 
1799.000000	97.457005 
1798.000000	97.469904 
1797.000000	97.457359 
1796.000000	97.427984 
1795.000000	97.402958 
1794.000000	97.391594 
1793.000000	97.395500 
1792.000000	97.413680 
1791.000000	97.433205 
1790.000000	97.434938 
1789.000000	97.414451 
1788.000000	97.390127 
1787.000000	97.381969 
1786.000000	97.386677 
1785.000000	97.385619 
1784.000000	97.376573 
1783.000000	97.375256 
1782.000000	97.382660 
1781.000000	97.383935 
1780.000000	97.370748 
1779.000000	97.346538 
1778.000000	97.314217 
1777.000000	97.269317 
1776.000000	97.211602 
1775.000000	97.143487 
1774.000000	97.069763 
1773.000000	97.010742 
1772.000000	96.984725 
1771.000000	96.981658 
1770.000000	96.977860 
1769.000000	96.953407 
1768.000000	96.902093 
1767.000000	96.834484 
1766.000000	96.761746 
1765.000000	96.686873 
1764.000000	96.610009 
1763.000000	96.536912 
1762.000000	96.471054 
1761.000000	96.410724 
1760.000000	96.358756 
1759.000000	96.314246 
1758.000000	96.261667 
1757.000000	96.186369 
1756.000000	96.096284 
1755.000000	96.012284 
1754.000000	95.940963 
1753.000000	95.874132 
1752.000000	95.813396 
1751.000000	95.767457 
1750.000000	95.735338 
1749.000000	95.708518 
1748.000000	95.681849 
1747.000000	95.654817 
1746.000000	95.627388 
1745.000000	95.604162 
1744.000000	95.590102 
1743.000000	95.583178 
1742.000000	95.580154 
1741.000000	95.588124 
1740.000000	95.619144 
1739.000000	95.670483 
1738.000000	95.732467 
1737.000000	95.810487 
1736.000000	95.930101 
1735.000000	96.135117 
1734.000000	96.402132 
1733.000000	96.629519 
1732.000000	96.792731 
1731.000000	96.929057 
1730.000000	97.050322 
1729.000000	97.164268 
1728.000000	97.288393 
1727.000000	97.431256 
1726.000000	97.576368 
1725.000000	97.707199 
1724.000000	97.815833 
1723.000000	97.891203 
1722.000000	97.921614 
1721.000000	97.912191 
1720.000000	97.885666 
1719.000000	97.866017 
1718.000000	97.854504 
1717.000000	97.832159 
1716.000000	97.814257 
1715.000000	97.823326 
1714.000000	97.833285 
1713.000000	97.817666 
1712.000000	97.789299 
1711.000000	97.765613 
1710.000000	97.733526 
1709.000000	97.676813 
1708.000000	97.614005 
1707.000000	97.572663 
1706.000000	97.543549 
1705.000000	97.493465 
1704.000000	97.430433 
1703.000000	97.380116 
1702.000000	97.330874 
1701.000000	97.272516 
1700.000000	97.214371 
1699.000000	97.174399 
1698.000000	97.155497 
1697.000000	97.127425 
1696.000000	97.073818 
1695.000000	97.008368 
1694.000000	96.946002 
1693.000000	96.891567 
1692.000000	96.841230 
1691.000000	96.792114 
1690.000000	96.731671 
1689.000000	96.643509 
1688.000000	96.537171 
1687.000000	96.425738 
1686.000000	96.305056 
1685.000000	96.205361 
1684.000000	96.153950 
1683.000000	96.116540 
1682.000000	96.067515 
1681.000000	95.995647 
1680.000000	95.890912 
1679.000000	95.768215 
1678.000000	95.635177 
1677.000000	95.485209 
1676.000000	95.314325 
1675.000000	95.125056 
1674.000000	94.917517 
1673.000000	94.697709 
1672.000000	94.462174 
1671.000000	94.190865 
1670.000000	93.859168 
1669.000000	93.462651 
1668.000000	93.042822 
1667.000000	92.637516 
1666.000000	92.231129 
1665.000000	91.784557 
1664.000000	91.289769 
1663.000000	90.778722 
1662.000000	90.278591 
1661.000000	89.797986 
1660.000000	89.339007 
1659.000000	88.899356 
1658.000000	88.476703 
1657.000000	88.085497 
1656.000000	87.732600 
1655.000000	87.385675 
1654.000000	87.012843 
1653.000000	86.605749 
1652.000000	86.233691 
1651.000000	85.996531 
1650.000000	85.840964 
1649.000000	85.631418 
1648.000000	85.309379 
1647.000000	84.894942 
1646.000000	84.433873 
1645.000000	83.960805 
1644.000000	83.514668 
1643.000000	83.099580 
1642.000000	82.671882 
1641.000000	82.195778 
1640.000000	81.707918 
1639.000000	81.263367 
1638.000000	80.831263 
1637.000000	80.307032 
1636.000000	79.650862 
1635.000000	78.954739 
1634.000000	78.316582 
1633.000000	77.721901 
1632.000000	77.108776 
1631.000000	76.446351 
1630.000000	75.717073 
1629.000000	74.917196 
1628.000000	74.098308 
1627.000000	73.348945 
1626.000000	72.694633 
1625.000000	72.082264 
1624.000000	71.481583 
1623.000000	70.943334 
1622.000000	70.531011 
1621.000000	70.250494 
1620.000000	70.074408 
1619.000000	69.977666 
1618.000000	69.943514 
1617.000000	69.976577 
1616.000000	70.107565 
1615.000000	70.353231 
1614.000000	70.678863 
1613.000000	71.023679 
1612.000000	71.343839 
1611.000000	71.599946 
1610.000000	71.721819 
1609.000000	71.627094 
1608.000000	71.269095 
1607.000000	70.639707 
1606.000000	69.736205 
1605.000000	68.554164 
1604.000000	67.110598 
1603.000000	65.447414 
1602.000000	63.604014 
1601.000000	61.604040 
1600.000000	59.483306 
1599.000000	57.298464 
1598.000000	55.082704 
1597.000000	52.831612 
1596.000000	50.570705 
1595.000000	48.399418 
1594.000000	46.421704 
1593.000000	44.675054 
1592.000000	43.174623 
1591.000000	41.964285 
1590.000000	41.063117 
1589.000000	40.421913 
1588.000000	39.991249 
1587.000000	39.773474 
1586.000000	39.760255 
1585.000000	39.889063 
1584.000000	40.114169 
1583.000000	40.450389 
1582.000000	40.900615 
1581.000000	41.409785 
1580.000000	41.935538 
1579.000000	42.495486 
1578.000000	43.109108 
1577.000000	43.745624 
1576.000000	44.361793 
1575.000000	44.960474 
1574.000000	45.553586 
1573.000000	46.115480 
1572.000000	46.628651 
1571.000000	47.128804 
1570.000000	47.652599 
1569.000000	48.170325 
1568.000000	48.654026 
1567.000000	49.144949 
1566.000000	49.682150 
1565.000000	50.246049 
1564.000000	50.805071 
1563.000000	51.364962 
1562.000000	51.941151 
1561.000000	52.519060 
1560.000000	53.131700 
1559.000000	53.843806 
1558.000000	54.571387 
1557.000000	55.229599 
1556.000000	55.853144 
1555.000000	56.481439 
1554.000000	57.124322 
1553.000000	57.746226 
1552.000000	58.325174 
1551.000000	58.870647 
1550.000000	59.389717 
1549.000000	59.863582 
1548.000000	60.282742 
1547.000000	60.664204 
1546.000000	61.017909 
1545.000000	61.328490 
1544.000000	61.579093 
1543.000000	61.774969 
1542.000000	61.920735 
1541.000000	61.998498 
1540.000000	61.984686 
1539.000000	61.897054 
1538.000000	61.806607 
1537.000000	61.743904 
1536.000000	61.655938 
1535.000000	61.471459 
1534.000000	61.165989 
1533.000000	60.807750 
1532.000000	60.502401 
1531.000000	60.294985 
1530.000000	60.169578 
1529.000000	60.107554 
1528.000000	60.109284 
1527.000000	60.185470 
1526.000000	60.336537 
1525.000000	60.540302 
1524.000000	60.760985 
1523.000000	60.969378 
1522.000000	61.157576 
1521.000000	61.338411 
1520.000000	61.546694 
1519.000000	61.815903 
1518.000000	62.146117 
1517.000000	62.513254 
1516.000000	62.902443 
1515.000000	63.332967 
1514.000000	63.828440 
1513.000000	64.376606 
1512.000000	64.947146 
1511.000000	65.525173 
1510.000000	66.110667 
1509.000000	66.691891 
1508.000000	67.269702 
1507.000000	67.880743 
1506.000000	68.505407 
1505.000000	69.088781 
1504.000000	69.638375 
1503.000000	70.183954 
1502.000000	70.740525 
1501.000000	71.296585 
1500.000000	71.837519 
1499.000000	72.380419 
1498.000000	72.958888 
1497.000000	73.564912 
1496.000000	74.153620 
1495.000000	74.717735 
1494.000000	75.279696 
1493.000000	75.837695 
1492.000000	76.388354 
1491.000000	76.961245 
1490.000000	77.562918 
1489.000000	78.127389 
1488.000000	78.607229 
1487.000000	79.030697 
1486.000000	79.419497 
1485.000000	79.746229 
1484.000000	79.995048 
1483.000000	80.198812 
1482.000000	80.397328 
1481.000000	80.594963 
1480.000000	80.781900 
1479.000000	80.959676 
1478.000000	81.112166 
1477.000000	81.196489 
1476.000000	81.194963 
1475.000000	81.133530 
1474.000000	81.014317 
1473.000000	80.794646 
1472.000000	80.481397 
1471.000000	80.161616 
1470.000000	79.880083 
1469.000000	79.592862 
1468.000000	79.252631 
1467.000000	78.845538 
1466.000000	78.352038 
1465.000000	77.748402 
1464.000000	77.072838 
1463.000000	76.399350 
1462.000000	75.726477 
1461.000000	74.979511 
1460.000000	74.061147 
1459.000000	72.825367 
1458.000000	71.063404 
1457.000000	68.833815 
1456.000000	66.753503 
1455.000000	65.368816 
1454.000000	64.640935 
1453.000000	64.325493 
1452.000000	64.287230 
1451.000000	64.480311 
1450.000000	64.894142 
1449.000000	65.558512 
1448.000000	66.533628 
1447.000000	67.824037 
1446.000000	69.351797 
1445.000000	71.013410 
1444.000000	72.709911 
1443.000000	74.344669 
1442.000000	75.841556 
1441.000000	77.149967 
1440.000000	78.250815 
1439.000000	79.177313 
1438.000000	80.009518 
1437.000000	80.785688 
1436.000000	81.441677 
1435.000000	81.943148 
1434.000000	82.354431 
1433.000000	82.716960 
1432.000000	83.007594 
1431.000000	83.206809 
1430.000000	83.328948 
1429.000000	83.372265 
1428.000000	83.306935 
1427.000000	83.130821 
1426.000000	82.855491 
1425.000000	82.451598 
1424.000000	81.883775 
1423.000000	81.185322 
1422.000000	80.384178 
1421.000000	79.363733 
1420.000000	77.919060 
1419.000000	76.021097 
1418.000000	73.885900 
1417.000000	71.655724 
1416.000000	69.278176 
1415.000000	66.716547 
1414.000000	64.044211 
1413.000000	61.397922 
1412.000000	58.977720 
1411.000000	57.038674 
1410.000000	55.768521 
1409.000000	55.214600 
1408.000000	55.359801 
1407.000000	56.156064 
1406.000000	57.472182 
1405.000000	59.120641 
1404.000000	60.949214 
1403.000000	62.864346 
1402.000000	64.815405 
1401.000000	66.799781 
1400.000000	68.823255 
1399.000000	70.806796 
1398.000000	72.617269 
1397.000000	74.213852 
1396.000000	75.659847 
1395.000000	76.998610 
1394.000000	78.195311 
1393.000000	79.205756 
1392.000000	80.036490 
1391.000000	80.719960 
1390.000000	81.279304 
1389.000000	81.715405 
1388.000000	82.002561 
1387.000000	82.100841 
1386.000000	81.984600 
1385.000000	81.656800 
1384.000000	81.164959 
1383.000000	80.645830 
1382.000000	80.314850 
1381.000000	80.339582 
1380.000000	80.725165 
1379.000000	81.331432 
1378.000000	81.981699 
1377.000000	82.562871 
1376.000000	83.047328 
1375.000000	83.449209 
1374.000000	83.775211 
1373.000000	84.011330 
1372.000000	84.138893 
1371.000000	84.140046 
1370.000000	83.981080 
1369.000000	83.603005 
1368.000000	82.949017 
1367.000000	82.007382 
1366.000000	80.792822 
1365.000000	79.268465 
1364.000000	77.324866 
1363.000000	74.880689 
1362.000000	72.001585 
1361.000000	68.862975 
1360.000000	65.616542 
1359.000000	62.364848 
1358.000000	59.223701 
1357.000000	56.348338 
1356.000000	53.919996 
1355.000000	52.120769 
1354.000000	51.081896 
1353.000000	50.835925 
1352.000000	51.331621 
1351.000000	52.473833 
1350.000000	54.122320 
1349.000000	56.087588 
1348.000000	58.178350 
1347.000000	60.256911 
1346.000000	62.243749 
1345.000000	64.095568 
1344.000000	65.804381 
1343.000000	67.402942 
1342.000000	68.942286 
1341.000000	70.452554 
1340.000000	71.923518 
1339.000000	73.322025 
1338.000000	74.627653 
1337.000000	75.845337 
1336.000000	76.988166 
1335.000000	78.062467 
1334.000000	79.069002 
1333.000000	80.007882 
1332.000000	80.878801 
1331.000000	81.680698 
1330.000000	82.412965 
1329.000000	83.073728 
1328.000000	83.656431 
1327.000000	84.150993 
1326.000000	84.546762 
1325.000000	84.830180 
1324.000000	84.982223 
1323.000000	84.983457 
1322.000000	84.815502 
1321.000000	84.447397 
1320.000000	83.824537 
1319.000000	82.880986 
1318.000000	81.561590 
1317.000000	79.826539 
1316.000000	77.643336 
1315.000000	74.989287 
1314.000000	71.868943 
1313.000000	68.345040 
1312.000000	64.576974 
1311.000000	60.829588 
1310.000000	57.426675 
1309.000000	54.687601 
1308.000000	52.874100 
1307.000000	52.115093 
1306.000000	52.338267 
1305.000000	53.307302 
1304.000000	54.748519 
1303.000000	56.438617 
1302.000000	58.212705 
1301.000000	59.958250 
1300.000000	61.623930 
1299.000000	63.207909 
1298.000000	64.718712 
1297.000000	66.151701 
1296.000000	67.499581 
1295.000000	68.765006 
1294.000000	69.953073 
1293.000000	71.062496 
1292.000000	72.092729 
1291.000000	73.052118 
1290.000000	73.950742 
1289.000000	74.790476 
1288.000000	75.569968 
1287.000000	76.295118 
1286.000000	76.975784 
1285.000000	77.614685 
1284.000000	78.209160 
1283.000000	78.763364 
1282.000000	79.289152 
1281.000000	79.793343 
1280.000000	80.272394 
1279.000000	80.721996 
1278.000000	81.144664 
1277.000000	81.545582 
1276.000000	81.928431 
1275.000000	82.297835 
1274.000000	82.658169 
1273.000000	83.007011 
1272.000000	83.337183 
1271.000000	83.647891 
1270.000000	83.945269 
1269.000000	84.228963 
1268.000000	84.488832 
1267.000000	84.720510 
1266.000000	84.934112 
1265.000000	85.140486 
1264.000000	85.338112 
1263.000000	85.520537 
1262.000000	85.687063 
1261.000000	85.837937 
1260.000000	85.967241 
1259.000000	86.068741 
1258.000000	86.141235 
1257.000000	86.179912 
1256.000000	86.169008 
1255.000000	86.088491 
1254.000000	85.919559 
1253.000000	85.639414 
1252.000000	85.225185 
1251.000000	84.677215 
1250.000000	84.034677 
1249.000000	83.363287 
1248.000000	82.732514 
1247.000000	82.194950 
1246.000000	81.758607 
1245.000000	81.367307 
1244.000000	80.924604 
1243.000000	80.354202 
1242.000000	79.645148 
1241.000000	78.854162 
1240.000000	78.087181 
1239.000000	77.475244 
1238.000000	77.132997 
1237.000000	77.115707 
1236.000000	77.411669 
1235.000000	77.965390 
1234.000000	78.699972 
1233.000000	79.531347 
1232.000000	80.383961 
1231.000000	81.206496 
1230.000000	81.975943 
1229.000000	82.687276 
1228.000000	83.341969 
1227.000000	83.946391 
1226.000000	84.513181 
1225.000000	85.055523 
1224.000000	85.578192 
1223.000000	86.072165 
1222.000000	86.513028 
1221.000000	86.869194 
1220.000000	87.128878 
1219.000000	87.328467 
1218.000000	87.541804 
1217.000000	87.826988 
1216.000000	88.185869 
1215.000000	88.576459 
1214.000000	88.951968 
1213.000000	89.282729 
1212.000000	89.558315 
1211.000000	89.787733 
1210.000000	89.992420 
1209.000000	90.186168 
1208.000000	90.366758 
1207.000000	90.533855 
1206.000000	90.702344 
1205.000000	90.886110 
1204.000000	91.080537 
1203.000000	91.274882 
1202.000000	91.471742 
1201.000000	91.679899 
1200.000000	91.896943 
1199.000000	92.113959 
1198.000000	92.330031 
1197.000000	92.548156 
1196.000000	92.764283 
1195.000000	92.974015 
1194.000000	93.182019 
1193.000000	93.390913 
1192.000000	93.589813 
1191.000000	93.769576 
1190.000000	93.940564 
1189.000000	94.117536 
1188.000000	94.294260 
1187.000000	94.452012 
1186.000000	94.588491 
1185.000000	94.719874 
1184.000000	94.857085 
1183.000000	94.996906 
1182.000000	95.134007 
1181.000000	95.265919 
1180.000000	95.387035 
1179.000000	95.490760 
1178.000000	95.576177 
1177.000000	95.642184 
1176.000000	95.679333 
1175.000000	95.677068 
1174.000000	95.631344 
1173.000000	95.533501 
1172.000000	95.360547 
1171.000000	95.091117 
1170.000000	94.726444 
1169.000000	94.289252 
1168.000000	93.817570 
1167.000000	93.371911 
1166.000000	93.027483 
1165.000000	92.831636 
1164.000000	92.767603 
1163.000000	92.766503 
1162.000000	92.747205 
1161.000000	92.639812 
1160.000000	92.388212 
1159.000000	91.952104 
1158.000000	91.304702 
1157.000000	90.417339 
1156.000000	89.255466 
1155.000000	87.804637 
1154.000000	86.098968 
1153.000000	84.229263 
1152.000000	82.348760 
1151.000000	80.672891 
1150.000000	79.431839 
1149.000000	78.787005 
1148.000000	78.778510 
1147.000000	79.328711 
1146.000000	80.278981 
1145.000000	81.442365 
1144.000000	82.656340 
1143.000000	83.814529 
1142.000000	84.868339 
1141.000000	85.807469 
1140.000000	86.639763 
1139.000000	87.382575 
1138.000000	88.055551 
1137.000000	88.666991 
1136.000000	89.209798 
1135.000000	89.677875 
1134.000000	90.079379 
1133.000000	90.423604 
1132.000000	90.701861 
1131.000000	90.893947 
1130.000000	90.988442 
1129.000000	90.983089 
1128.000000	90.866171 
1127.000000	90.605048 
1126.000000	90.146431 
1125.000000	89.418075 
1124.000000	88.336273 
1123.000000	86.819134 
1122.000000	84.785277 
1121.000000	82.145753 
1120.000000	78.844273 
1119.000000	74.959328 
1118.000000	70.787771 
1117.000000	66.832616 
1116.000000	63.692249 
1115.000000	61.868114 
1114.000000	61.560633 
1113.000000	62.611005 
1112.000000	64.635220 
1111.000000	67.200597 
1110.000000	69.928336 
1109.000000	72.539771 
1108.000000	74.875597 
1107.000000	76.883233 
1106.000000	78.578599 
1105.000000	80.008773 
1104.000000	81.232945 
1103.000000	82.311595 
1102.000000	83.289914 
1101.000000	84.185859 
1100.000000	85.002249 
1099.000000	85.748519 
1098.000000	86.436987 
1097.000000	87.062904 
1096.000000	87.606533 
1095.000000	88.063026 
1094.000000	88.455765 
1093.000000	88.813019 
1092.000000	89.145798 
1091.000000	89.455824 
1090.000000	89.748051 
1089.000000	90.023848 
1088.000000	90.276059 
1087.000000	90.502704 
1086.000000	90.713808 
1085.000000	90.915533 
1084.000000	91.101858 
1083.000000	91.272053 
1082.000000	91.440896 
1081.000000	91.619654 
1080.000000	91.801728 
1079.000000	91.978922 
1078.000000	92.155979 
1077.000000	92.335461 
1076.000000	92.504815 
1075.000000	92.655522 
1074.000000	92.800972 
1073.000000	92.957461 
1072.000000	93.119387 
1071.000000	93.270061 
1070.000000	93.406042 
1069.000000	93.534373 
1068.000000	93.656132 
1067.000000	93.769330 
1066.000000	93.878824 
1065.000000	93.987887 
1064.000000	94.088817 
1063.000000	94.176000 
1062.000000	94.258909 
1061.000000	94.348843 
1060.000000	94.443211 
1059.000000	94.536070 
1058.000000	94.632318 
1057.000000	94.735914 
1056.000000	94.834164 
1055.000000	94.910201 
1054.000000	94.964714 
1053.000000	95.011926 
1052.000000	95.061423 
1051.000000	95.118376 
1050.000000	95.195060 
1049.000000	95.306832 
1048.000000	95.459652 
1047.000000	95.649849 
1046.000000	95.869636 
1045.000000	96.108069 
1044.000000	96.355537 
1043.000000	96.609360 
1042.000000	96.861691 
1041.000000	97.078350 
1040.000000	97.205563 
1039.000000	97.203045 
1038.000000	97.052253 
1037.000000	96.724949 
1036.000000	96.165857 
1035.000000	95.318797 
1034.000000	94.155386 
1033.000000	92.685149 
1032.000000	90.982806 
1031.000000	89.218814 
1030.000000	87.613825 
1029.000000	86.331814 
1028.000000	85.436489 
1027.000000	84.938977 
1026.000000	84.822938 
1025.000000	84.988884 
1024.000000	85.204522 
1023.000000	85.149300 
1022.000000	84.520725 
1021.000000	83.121524 
1020.000000	80.920253 
1019.000000	78.110136 
1018.000000	75.113605 
1017.000000	72.474633 
1016.000000	70.686622 
1015.000000	70.035154 
1014.000000	70.508194 
1013.000000	71.828892 
1012.000000	73.605163 
1011.000000	75.497886 
1010.000000	77.310934 
1009.000000	78.975642 
1008.000000	80.477112 
1007.000000	81.802389 
1006.000000	82.941738 
1005.000000	83.905371 
1004.000000	84.719709 
1003.000000	85.414013 
1002.000000	86.015459 
1001.000000	86.546351 
1000.000000	87.018130 
999.000000	 87.431986 
998.000000	 87.787690 
997.000000	 88.088426 
996.000000	 88.339422 
995.000000	 88.549022 
994.000000	 88.729387 
993.000000	 88.889108 
992.000000	 89.026911 
991.000000	 89.138629 
990.000000	 89.227613 
989.000000	 89.302474 
988.000000	 89.368347 
987.000000	 89.426313 
986.000000	 89.477167 
985.000000	 89.520400 
984.000000	 89.554861 
983.000000	 89.585697 
982.000000	 89.624136 
981.000000	 89.674780 
980.000000	 89.730673 
979.000000	 89.787606 
978.000000	 89.855411 
977.000000	 89.947217 
976.000000	 90.064609 
975.000000	 90.201309 
974.000000	 90.354216 
973.000000	 90.521251 
972.000000	 90.693666 
971.000000	 90.859915 
970.000000	 91.014013 
969.000000	 91.153930 
968.000000	 91.277763 
967.000000	 91.388493 
966.000000	 91.494977 
965.000000	 91.599991 
964.000000	 91.695705 
963.000000	 91.780600 
962.000000	 91.871411 
961.000000	 91.984864 
960.000000	 92.113645 
959.000000	 92.233424 
958.000000	 92.329569 
957.000000	 92.404928 
956.000000	 92.465177 
955.000000	 92.509709 
954.000000	 92.536191 
953.000000	 92.544505 
952.000000	 92.538089 
951.000000	 92.528468 
950.000000	 92.533031 
949.000000	 92.559558 
948.000000	 92.597903 
947.000000	 92.634771 
946.000000	 92.670236 
945.000000	 92.711248 
944.000000	 92.757189 
943.000000	 92.803069 
942.000000	 92.849639 
941.000000	 92.897379 
940.000000	 92.935749 
939.000000	 92.952033 
938.000000	 92.948840 
937.000000	 92.941496 
936.000000	 92.938749 
935.000000	 92.932624 
934.000000	 92.902124 
933.000000	 92.819446 
932.000000	 92.659600 
931.000000	 92.413222 
930.000000	 92.081974 
929.000000	 91.650542 
928.000000	 91.072718 
927.000000	 90.299512 
926.000000	 89.314921 
925.000000	 88.132941 
924.000000	 86.773639 
923.000000	 85.270743 
922.000000	 83.715157 
921.000000	 82.287421 
920.000000	 81.235234 
919.000000	 80.785465 
918.000000	 81.033169 
917.000000	 81.893792 
916.000000	 83.157660 
915.000000	 84.590286 
914.000000	 86.004343 
913.000000	 87.281467 
912.000000	 88.366191 
911.000000	 89.256429 
910.000000	 89.987131 
909.000000	 90.598688 
908.000000	 91.111995 
907.000000	 91.534611 
906.000000	 91.880099 
905.000000	 92.168149 
904.000000	 92.411383 
903.000000	 92.614679 
902.000000	 92.784016 
901.000000	 92.926678 
900.000000	 93.048443 
899.000000	 93.158715 
898.000000	 93.269586 
897.000000	 93.381144 
896.000000	 93.478186 
895.000000	 93.553732 
894.000000	 93.625077 
893.000000	 93.712862 
892.000000	 93.814188 
891.000000	 93.911014 
890.000000	 93.995394 
889.000000	 94.070021 
888.000000	 94.132459 
887.000000	 94.177872 
886.000000	 94.213081 
885.000000	 94.251249 
884.000000	 94.295749 
883.000000	 94.342754 
882.000000	 94.394108 
881.000000	 94.453627 
880.000000	 94.517266 
879.000000	 94.580911 
878.000000	 94.649247 
877.000000	 94.720834 
876.000000	 94.774173 
875.000000	 94.787883 
874.000000	 94.766148 
873.000000	 94.724294 
872.000000	 94.658680 
871.000000	 94.553172 
870.000000	 94.408025 
869.000000	 94.239489 
868.000000	 94.054123 
867.000000	 93.841607 
866.000000	 93.587458 
865.000000	 93.273763 
864.000000	 92.868277 
863.000000	 92.324369 
862.000000	 91.584305 
861.000000	 90.567558 
860.000000	 89.162018 
859.000000	 87.241630 
858.000000	 84.694556 
857.000000	 81.451773 
856.000000	 77.550911 
855.000000	 73.227716 
854.000000	 68.932083 
853.000000	 65.212786 
852.000000	 62.560797 
851.000000	 61.301617 
850.000000	 61.530847 
849.000000	 63.084948 
848.000000	 65.573769 
847.000000	 68.489725 
846.000000	 71.372072 
845.000000	 73.942151 
844.000000	 76.119476 
843.000000	 77.941710 
842.000000	 79.488700 
841.000000	 80.849949 
840.000000	 82.100948 
839.000000	 83.272386 
838.000000	 84.343271 
837.000000	 85.275278 
836.000000	 86.057032 
835.000000	 86.718061 
834.000000	 87.305051 
833.000000	 87.845246 
832.000000	 88.331782 
831.000000	 88.745348 
830.000000	 89.087845 
829.000000	 89.389027 
828.000000	 89.680966 
827.000000	 89.973293 
826.000000	 90.253400 
825.000000	 90.504171 
824.000000	 90.721960 
823.000000	 90.923043 
822.000000	 91.129115 
821.000000	 91.340703 
820.000000	 91.532515 
819.000000	 91.683098 
818.000000	 91.800917 
817.000000	 91.910908 
816.000000	 92.022955 
815.000000	 92.127127 
814.000000	 92.214959 
813.000000	 92.290289 
812.000000	 92.360714 
811.000000	 92.432921 
810.000000	 92.516151 
809.000000	 92.615876 
808.000000	 92.722599 
807.000000	 92.819577 
806.000000	 92.903771 
805.000000	 92.988475 
804.000000	 93.084378 
803.000000	 93.187860 
802.000000	 93.285486 
801.000000	 93.355251 
800.000000	 93.363190 
799.000000	 93.279352 
798.000000	 93.112027 
797.000000	 92.920888 
796.000000	 92.786958 
795.000000	 92.764317 
794.000000	 92.850544 
793.000000	 92.994009 
792.000000	 93.131510 
791.000000	 93.227046 
790.000000	 93.279202 
789.000000	 93.295534 
788.000000	 93.269685 
787.000000	 93.187139 
786.000000	 93.040410 
785.000000	 92.826484 
784.000000	 92.535097 
783.000000	 92.146625 
782.000000	 91.630013 
781.000000	 90.930666 
780.000000	 89.973511 
779.000000	 88.702227 
778.000000	 87.124253 
777.000000	 85.317290 
776.000000	 83.396503 
775.000000	 81.464347 
774.000000	 79.559947 
773.000000	 77.652297 
772.000000	 75.725541 
771.000000	 73.908686 
770.000000	 72.510397 
769.000000	 71.888858 
768.000000	 72.253690 
767.000000	 73.551236 
766.000000	 75.499902 
765.000000	 77.732770 
764.000000	 79.941682 
763.000000	 81.944961 
762.000000	 83.677294 
761.000000	 85.140334 
760.000000	 86.356226 
759.000000	 87.352161 
758.000000	 88.167098 
757.000000	 88.849013 
756.000000	 89.436855 
755.000000	 89.950069 
754.000000	 90.394169 
753.000000	 90.770647 
752.000000	 91.088227 
751.000000	 91.374100 
750.000000	 91.665019 
749.000000	 91.973436 
748.000000	 92.270873 
747.000000	 92.521631 
746.000000	 92.725938 
745.000000	 92.911333 
744.000000	 93.090212 
743.000000	 93.251099 
742.000000	 93.388963 
741.000000	 93.517920 
740.000000	 93.649754 
739.000000	 93.780630 
738.000000	 93.902358 
737.000000	 94.008688 
736.000000	 94.090752 
735.000000	 94.147268 
734.000000	 94.200404 
733.000000	 94.279227 
732.000000	 94.382901 
731.000000	 94.481074 
730.000000	 94.555915 
729.000000	 94.622938 
728.000000	 94.704393 
727.000000	 94.803049 
726.000000	 94.909931 
725.000000	 95.018164 
724.000000	 95.118627 
723.000000	 95.197990 
722.000000	 95.251237 
721.000000	 95.285662 
720.000000	 95.307269 
719.000000	 95.315488 
718.000000	 95.317015 
717.000000	 95.328271 
716.000000	 95.354099 
715.000000	 95.375344 
714.000000	 95.366095 
713.000000	 95.317404 
712.000000	 95.240515 
711.000000	 95.156498 
710.000000	 95.088101 
709.000000	 95.052203 
708.000000	 95.051119 
707.000000	 95.071569 
706.000000	 95.093195 
705.000000	 95.099770 
704.000000	 95.089116 
703.000000	 95.076642 
702.000000	 95.082198 
701.000000	 95.105881 
700.000000	 95.125430 
699.000000	 95.126992 
698.000000	 95.125685 
697.000000	 95.141471 
696.000000	 95.168046 
695.000000	 95.186903 
694.000000	 95.203315 
693.000000	 95.241384 
692.000000	 95.305994 
691.000000	 95.376865 
690.000000	 95.442424 
689.000000	 95.513803 
688.000000	 95.595677 
687.000000	 95.664623 
686.000000	 95.690393 
685.000000	 95.668138 
684.000000	 95.624247 
683.000000	 95.594962 
682.000000	 95.593572 
681.000000	 95.592584 
680.000000	 95.553507 
679.000000	 95.485095 
678.000000	 95.446904 
677.000000	 95.474198 
676.000000	 95.526002 
675.000000	 95.543828 
674.000000	 95.528143 
673.000000	 95.516213 
672.000000	 95.505927 
671.000000	 95.447463 
670.000000	 95.291967 
669.000000	 95.043736 
668.000000	 94.821190 
667.000000	 94.738039 
666.000000	 94.729258 
665.000000	 94.682097 
664.000000	 94.542847 
663.000000	 94.291090 
662.000000	 93.939049 
661.000000	 93.504188 
660.000000	 92.965293 
659.000000	 92.288256 
658.000000	 91.477380 
657.000000	 90.543046 
656.000000	 89.449023 
655.000000	 88.130005 
654.000000	 86.546733 
653.000000	 84.644833 
652.000000	 82.366149 
651.000000	 79.650973 
650.000000	 76.558861 

