PE IR                   SPECTRUM    ASCII       PEDS        1.60        
  -1
~SP.SP
18/03/23
17:53:16.00
18/03/23
17:53:16.00
pili
NI
650.000000
4









SPECTRUM 100,CPU32 MAIN 00.02.8200 12-DECEMBER-2006 10:00:00
MIR TGS
MIR
OPTKBR
78890
0.200000

4.000000
STRONG
RATIO
SPECTRUM
MAGNITUDE
UNIVERSAL ATR
DOUBLE

COMBINED


0


#HDR
-1
-1
#GR
CM-1
%T
0.00002384185791015625
0.0
4000.000000
-1.000000
3351
8
100.392324
50.410761
#DATA
4000.000000	98.114037  
3999.000000	98.104403  
3998.000000	98.100843  
3997.000000	98.108526  
3996.000000	98.125369  
3995.000000	98.144064  
3994.000000	98.150293  
3993.000000	98.159824  
3992.000000	98.166779  
3991.000000	98.170756  
3990.000000	98.168580  
3989.000000	98.158615  
3988.000000	98.144471  
3987.000000	98.133505  
3986.000000	98.131580  
3985.000000	98.139025  
3984.000000	98.150645  
3983.000000	98.159170  
3982.000000	98.159180  
3981.000000	98.149439  
3980.000000	98.133372  
3979.000000	98.117750  
3978.000000	98.109688  
3977.000000	98.112806  
3976.000000	98.124691  
3975.000000	98.137747  
3974.000000	98.143310  
3973.000000	98.136816  
3972.000000	98.120646  
3971.000000	98.102393  
3970.000000	98.089857  
3969.000000	98.086489  
3968.000000	98.090793  
3967.000000	98.099314  
3966.000000	98.109631  
3965.000000	98.120398  
3964.000000	98.129531  
3963.000000	98.133612  
3962.000000	98.129875  
3961.000000	98.118999  
3960.000000	98.105964  
3959.000000	98.097496  
3958.000000	98.097914  
3957.000000	98.106664  
3956.000000	98.119206  
3955.000000	98.130611  
3954.000000	98.138854  
3953.000000	98.145048  
3952.000000	98.150884  
3951.000000	98.156131  
3950.000000	98.159071  
3949.000000	98.158914  
3948.000000	98.157032  
3947.000000	98.155567  
3946.000000	98.155407  
3945.000000	98.155999  
3944.000000	98.157026  
3943.000000	98.160073  
3942.000000	98.167813  
3941.000000	98.180518  
3940.000000	98.194131  
3939.000000	98.202533  
3938.000000	98.201819  
3937.000000	98.192575  
3936.000000	98.178778  
3935.000000	98.165470  
3934.000000	98.156839  
3933.000000	98.155024  
3932.000000	98.159381  
3931.000000	98.166891  
3930.000000	98.173753  
3929.000000	98.176607  
3928.000000	98.173587  
3927.000000	98.165507  
3926.000000	98.155228  
3925.000000	98.145865  
3924.000000	98.139866  
3923.000000	98.138161  
3922.000000	98.139566  
3921.000000	98.141693  
3920.000000	98.143331  
3919.000000	98.145155  
3918.000000	98.147587  
3917.000000	98.149527  
3916.000000	98.150528  
3915.000000	98.152443  
3914.000000	98.157054  
3913.000000	98.162529  
3912.000000	98.165295  
3911.000000	98.164638  
3910.000000	98.164296  
3909.000000	98.168566  
3908.000000	98.177585  
3907.000000	98.187477  
3906.000000	98.194425  
3905.000000	98.197979  
3904.000000	98.201135  
3903.000000	98.206391  
3902.000000	98.211354  
3901.000000	98.210148  
3900.000000	98.199315  
3899.000000	98.183068  
3898.000000	98.171070  
3897.000000	98.169449  
3896.000000	98.176391  
3895.000000	98.185142  
3894.000000	98.189564  
3893.000000	98.187686  
3892.000000	98.182505  
3891.000000	98.179325  
3890.000000	98.180531  
3889.000000	98.183645  
3888.000000	98.184925  
3887.000000	98.182619  
3886.000000	98.178201  
3885.000000	98.176589  
3884.000000	98.182593  
3883.000000	98.195578  
3882.000000	98.209134  
3881.000000	98.215662  
3880.000000	98.212655  
3879.000000	98.204975  
3878.000000	98.198018  
3877.000000	98.193573  
3876.000000	98.192508  
3875.000000	98.194718  
3874.000000	98.197462  
3873.000000	98.199098  
3872.000000	98.201839  
3871.000000	98.207659  
3870.000000	98.214571  
3869.000000	98.219593  
3868.000000	98.223653  
3867.000000	98.229439  
3866.000000	98.234898  
3865.000000	98.232242  
3864.000000	98.217107  
3863.000000	98.195367  
3862.000000	98.179079  
3861.000000	98.175564  
3860.000000	98.182172  
3859.000000	98.188852  
3858.000000	98.186655  
3857.000000	98.174710  
3856.000000	98.160358  
3855.000000	98.151490  
3854.000000	98.150016  
3853.000000	98.153320  
3852.000000	98.158104  
3851.000000	98.160213  
3850.000000	98.160178  
3849.000000	98.164283  
3848.000000	98.177939  
3847.000000	98.199044  
3846.000000	98.218522  
3845.000000	98.227946  
3844.000000	98.226034  
3843.000000	98.216476  
3842.000000	98.204883  
3841.000000	98.196273  
3840.000000	98.193588  
3839.000000	98.197950  
3838.000000	98.208801  
3837.000000	98.222044  
3836.000000	98.230926  
3835.000000	98.230989  
3834.000000	98.224300  
3833.000000	98.216536  
3832.000000	98.211452  
3831.000000	98.209522  
3830.000000	98.209723  
3829.000000	98.212059  
3828.000000	98.218856  
3827.000000	98.230339  
3826.000000	98.241114  
3825.000000	98.243815  
3824.000000	98.235653  
3823.000000	98.220271  
3822.000000	98.205273  
3821.000000	98.196882  
3820.000000	98.196134  
3819.000000	98.199627  
3818.000000	98.202805  
3817.000000	98.203819  
3816.000000	98.203953  
3815.000000	98.206599  
3814.000000	98.213886  
3813.000000	98.222825  
3812.000000	98.227618  
3811.000000	98.225228  
3810.000000	98.217881  
3809.000000	98.210916  
3808.000000	98.207539  
3807.000000	98.206548  
3806.000000	98.207346  
3805.000000	98.213056  
3804.000000	98.227756  
3803.000000	98.248989  
3802.000000	98.264033  
3801.000000	98.262816  
3800.000000	98.250930  
3799.000000	98.239561  
3798.000000	98.232694  
3797.000000	98.227244  
3796.000000	98.219452  
3795.000000	98.212087  
3794.000000	98.212690  
3793.000000	98.224663  
3792.000000	98.242573  
3791.000000	98.255531  
3790.000000	98.255438  
3789.000000	98.244524  
3788.000000	98.233949  
3787.000000	98.234069  
3786.000000	98.244791  
3785.000000	98.255489  
3784.000000	98.256364  
3783.000000	98.248722  
3782.000000	98.242274  
3781.000000	98.243932  
3780.000000	98.250847  
3779.000000	98.254102  
3778.000000	98.248737  
3777.000000	98.236688  
3776.000000	98.221765  
3775.000000	98.205815  
3774.000000	98.190347  
3773.000000	98.179268  
3772.000000	98.177544  
3771.000000	98.185524  
3770.000000	98.197809  
3769.000000	98.209512  
3768.000000	98.220113  
3767.000000	98.231093  
3766.000000	98.241535  
3765.000000	98.247018  
3764.000000	98.244261  
3763.000000	98.235509  
3762.000000	98.227423  
3761.000000	98.225531  
3760.000000	98.230866  
3759.000000	98.240199  
3758.000000	98.248353  
3757.000000	98.251680  
3756.000000	98.251578  
3755.000000	98.253928  
3754.000000	98.262510  
3753.000000	98.272336  
3752.000000	98.273216  
3751.000000	98.263992  
3750.000000	98.255997  
3749.000000	98.255521  
3748.000000	98.256442  
3747.000000	98.254696  
3746.000000	98.253381  
3745.000000	98.255545  
3744.000000	98.261367  
3743.000000	98.267521  
3742.000000	98.266218  
3741.000000	98.253176  
3740.000000	98.234103  
3739.000000	98.221433  
3738.000000	98.224498  
3737.000000	98.240958  
3736.000000	98.257355  
3735.000000	98.262666  
3734.000000	98.260628  
3733.000000	98.262208  
3732.000000	98.271070  
3731.000000	98.281378  
3730.000000	98.285131  
3729.000000	98.280122  
3728.000000	98.269961  
3727.000000	98.259863  
3726.000000	98.253446  
3725.000000	98.251363  
3724.000000	98.251136  
3723.000000	98.250074  
3722.000000	98.250572  
3721.000000	98.257906  
3720.000000	98.273440  
3719.000000	98.292240  
3718.000000	98.306050  
3717.000000	98.310336  
3716.000000	98.308537  
3715.000000	98.307962  
3714.000000	98.309711  
3713.000000	98.304497  
3712.000000	98.282847  
3711.000000	98.250350  
3710.000000	98.225363  
3709.000000	98.220612  
3708.000000	98.232835  
3707.000000	98.249316  
3706.000000	98.261307  
3705.000000	98.268007  
3704.000000	98.272247  
3703.000000	98.273478  
3702.000000	98.269332  
3701.000000	98.261504  
3700.000000	98.256254  
3699.000000	98.258425  
3698.000000	98.267048  
3697.000000	98.277376  
3696.000000	98.286301  
3695.000000	98.295317  
3694.000000	98.305889  
3693.000000	98.315789  
3692.000000	98.319831  
3691.000000	98.313889  
3690.000000	98.297674  
3689.000000	98.277726  
3688.000000	98.265528  
3687.000000	98.267987  
3686.000000	98.284282  
3685.000000	98.307554  
3684.000000	98.328005  
3683.000000	98.338242  
3682.000000	98.339805  
3681.000000	98.340279  
3680.000000	98.342838  
3679.000000	98.343586  
3678.000000	98.338785  
3677.000000	98.327027  
3676.000000	98.307163  
3675.000000	98.283255  
3674.000000	98.265513  
3673.000000	98.261418  
3672.000000	98.272996  
3671.000000	98.295864  
3670.000000	98.318680  
3669.000000	98.333774  
3668.000000	98.342922  
3667.000000	98.348639  
3666.000000	98.351085  
3665.000000	98.351602  
3664.000000	98.353329  
3663.000000	98.358823  
3662.000000	98.366804  
3661.000000	98.373201  
3660.000000	98.374884  
3659.000000	98.371862  
3658.000000	98.365602  
3657.000000	98.357030  
3656.000000	98.348142  
3655.000000	98.342705  
3654.000000	98.343499  
3653.000000	98.351271  
3652.000000	98.364318  
3651.000000	98.376498  
3650.000000	98.381476  
3649.000000	98.381742  
3648.000000	98.386067  
3647.000000	98.396892  
3646.000000	98.408380  
3645.000000	98.414046  
3644.000000	98.412423  
3643.000000	98.407230  
3642.000000	98.403338  
3641.000000	98.403184  
3640.000000	98.405419  
3639.000000	98.405938  
3638.000000	98.400669  
3637.000000	98.389169  
3636.000000	98.376002  
3635.000000	98.367371  
3634.000000	98.366323  
3633.000000	98.372104  
3632.000000	98.383962  
3631.000000	98.402077  
3630.000000	98.421784  
3629.000000	98.433389  
3628.000000	98.435834  
3627.000000	98.437562  
3626.000000	98.442300  
3625.000000	98.448673  
3624.000000	98.454515  
3623.000000	98.457343  
3622.000000	98.456418  
3621.000000	98.454061  
3620.000000	98.454228  
3619.000000	98.459476  
3618.000000	98.468325  
3617.000000	98.475707  
3616.000000	98.477407  
3615.000000	98.473001  
3614.000000	98.464970  
3613.000000	98.457187  
3612.000000	98.454448  
3611.000000	98.460912  
3610.000000	98.476727  
3609.000000	98.496179  
3608.000000	98.511183  
3607.000000	98.518037  
3606.000000	98.519669  
3605.000000	98.521301  
3604.000000	98.526961  
3603.000000	98.538500  
3602.000000	98.555526  
3601.000000	98.574256  
3600.000000	98.588775  
3599.000000	98.596293  
3598.000000	98.599457  
3597.000000	98.604603  
3596.000000	98.616007  
3595.000000	98.630698  
3594.000000	98.640780  
3593.000000	98.642054  
3592.000000	98.637246  
3591.000000	98.633010  
3590.000000	98.633669  
3589.000000	98.637230  
3588.000000	98.638330  
3587.000000	98.637719  
3586.000000	98.644083  
3585.000000	98.662322  
3584.000000	98.686300  
3583.000000	98.705340  
3582.000000	98.713695  
3581.000000	98.713344  
3580.000000	98.708979  
3579.000000	98.702413  
3578.000000	98.692655  
3577.000000	98.680901  
3576.000000	98.671879  
3575.000000	98.669537  
3574.000000	98.672461  
3573.000000	98.676976  
3572.000000	98.682758  
3571.000000	98.694763  
3570.000000	98.718471  
3569.000000	98.752586  
3568.000000	98.785638  
3567.000000	98.804407  
3566.000000	98.806487  
3565.000000	98.800355  
3564.000000	98.795557  
3563.000000	98.798093  
3562.000000	98.809739  
3561.000000	98.826914  
3560.000000	98.841230  
3559.000000	98.845546  
3558.000000	98.840014  
3557.000000	98.832009  
3556.000000	98.830230  
3555.000000	98.839213  
3554.000000	98.857256  
3553.000000	98.878940  
3552.000000	98.900230  
3551.000000	98.922020  
3550.000000	98.947316  
3549.000000	98.974242  
3548.000000	98.993000  
3547.000000	98.993474  
3546.000000	98.977467  
3545.000000	98.959995  
3544.000000	98.954376  
3543.000000	98.959257  
3542.000000	98.963033  
3541.000000	98.958809  
3540.000000	98.951508  
3539.000000	98.951190  
3538.000000	98.961809  
3537.000000	98.978302  
3536.000000	98.993279  
3535.000000	99.004168  
3534.000000	99.013321  
3533.000000	99.023634  
3532.000000	99.036345  
3531.000000	99.051950  
3530.000000	99.069922  
3529.000000	99.085873  
3528.000000	99.091389  
3527.000000	99.081141  
3526.000000	99.061217  
3525.000000	99.047302  
3524.000000	99.052337  
3523.000000	99.075491  
3522.000000	99.104192  
3521.000000	99.125666  
3520.000000	99.135269  
3519.000000	99.136046  
3518.000000	99.134034  
3517.000000	99.134297  
3516.000000	99.139020  
3515.000000	99.147625  
3514.000000	99.158846  
3513.000000	99.172349  
3512.000000	99.187226  
3511.000000	99.199617  
3510.000000	99.204411  
3509.000000	99.200358  
3508.000000	99.192013  
3507.000000	99.185895  
3506.000000	99.185463  
3505.000000	99.189494  
3504.000000	99.193241  
3503.000000	99.191498  
3502.000000	99.182313  
3501.000000	99.167962  
3500.000000	99.151971  
3499.000000	99.136547  
3498.000000	99.124443  
3497.000000	99.121360  
3496.000000	99.132003  
3495.000000	99.152246  
3494.000000	99.169320  
3493.000000	99.173645  
3492.000000	99.168851  
3491.000000	99.166736  
3490.000000	99.173505  
3489.000000	99.184116  
3488.000000	99.190516  
3487.000000	99.191683  
3486.000000	99.193633  
3485.000000	99.201731  
3484.000000	99.215207  
3483.000000	99.227159  
3482.000000	99.228025  
3481.000000	99.211422  
3480.000000	99.180155  
3479.000000	99.147033  
3478.000000	99.126885  
3477.000000	99.125064  
3476.000000	99.133842  
3475.000000	99.141325  
3474.000000	99.144093  
3473.000000	99.149020  
3472.000000	99.162574  
3471.000000	99.180990  
3470.000000	99.193232  
3469.000000	99.192792  
3468.000000	99.184037  
3467.000000	99.177006  
3466.000000	99.177712  
3465.000000	99.184488  
3464.000000	99.191996  
3463.000000	99.197314  
3462.000000	99.203067  
3461.000000	99.215440  
3460.000000	99.238012  
3459.000000	99.266071  
3458.000000	99.287785  
3457.000000	99.293438  
3456.000000	99.284097  
3455.000000	99.270627  
3454.000000	99.264313  
3453.000000	99.269238  
3452.000000	99.282978  
3451.000000	99.301130  
3450.000000	99.319118  
3449.000000	99.331785  
3448.000000	99.335351  
3447.000000	99.331028  
3446.000000	99.324164  
3445.000000	99.317950  
3444.000000	99.310021  
3443.000000	99.296938  
3442.000000	99.280072  
3441.000000	99.264901  
3440.000000	99.255611  
3439.000000	99.252947  
3438.000000	99.256206  
3437.000000	99.263613  
3436.000000	99.270280  
3435.000000	99.270078  
3434.000000	99.262190  
3433.000000	99.253477  
3432.000000	99.252052  
3431.000000	99.259833  
3430.000000	99.272978  
3429.000000	99.286971  
3428.000000	99.298419  
3427.000000	99.304223  
3426.000000	99.303339  
3425.000000	99.299092  
3424.000000	99.295970  
3423.000000	99.293559  
3422.000000	99.286770  
3421.000000	99.273344  
3420.000000	99.258327  
3419.000000	99.249500  
3418.000000	99.250051  
3417.000000	99.256572  
3416.000000	99.262155  
3415.000000	99.260668  
3414.000000	99.250501  
3413.000000	99.236299  
3412.000000	99.225849  
3411.000000	99.223500  
3410.000000	99.226685  
3409.000000	99.229334  
3408.000000	99.228206  
3407.000000	99.225714  
3406.000000	99.226686  
3405.000000	99.232175  
3404.000000	99.236314  
3403.000000	99.231060  
3402.000000	99.216008  
3401.000000	99.201988  
3400.000000	99.201176  
3399.000000	99.213306  
3398.000000	99.224351  
3397.000000	99.219797  
3396.000000	99.197199  
3395.000000	99.165852  
3394.000000	99.138063  
3393.000000	99.122643  
3392.000000	99.122583  
3391.000000	99.134475  
3390.000000	99.150180  
3389.000000	99.161272  
3388.000000	99.163088  
3387.000000	99.155927  
3386.000000	99.144936  
3385.000000	99.138738  
3384.000000	99.143837  
3383.000000	99.157059  
3382.000000	99.165713  
3381.000000	99.158946  
3380.000000	99.138971  
3379.000000	99.119421  
3378.000000	99.112767  
3377.000000	99.120408  
3376.000000	99.133569  
3375.000000	99.141609  
3374.000000	99.139891  
3373.000000	99.132112  
3372.000000	99.126084  
3371.000000	99.126699  
3370.000000	99.132731  
3369.000000	99.139958  
3368.000000	99.145825  
3367.000000	99.150554  
3366.000000	99.155470  
3365.000000	99.161309  
3364.000000	99.166649  
3363.000000	99.167102  
3362.000000	99.158306  
3361.000000	99.141625  
3360.000000	99.124771  
3359.000000	99.114303  
3358.000000	99.108945  
3357.000000	99.102932  
3356.000000	99.094411  
3355.000000	99.086699  
3354.000000	99.081376  
3353.000000	99.074620  
3352.000000	99.062801  
3351.000000	99.049484  
3350.000000	99.043750  
3349.000000	99.050829  
3348.000000	99.065333  
3347.000000	99.074794  
3346.000000	99.070912  
3345.000000	99.057379  
3344.000000	99.046068  
3343.000000	99.045038  
3342.000000	99.050870  
3341.000000	99.052779  
3340.000000	99.042868  
3339.000000	99.022075  
3338.000000	98.998122  
3337.000000	98.979761  
3336.000000	98.972076  
3335.000000	98.974609  
3334.000000	98.982263  
3333.000000	98.987594  
3332.000000	98.983270  
3331.000000	98.965652  
3330.000000	98.939633  
3329.000000	98.919159  
3328.000000	98.917579  
3327.000000	98.934258  
3326.000000	98.953736  
3325.000000	98.961186  
3324.000000	98.956153  
3323.000000	98.947890  
3322.000000	98.940279  
3321.000000	98.927501  
3320.000000	98.904113  
3319.000000	98.873630  
3318.000000	98.844897  
3317.000000	98.823693  
3316.000000	98.810444  
3315.000000	98.803373  
3314.000000	98.800914  
3313.000000	98.801799  
3312.000000	98.804388  
3311.000000	98.805326  
3310.000000	98.798604  
3309.000000	98.778470  
3308.000000	98.745447  
3307.000000	98.708117  
3306.000000	98.676562  
3305.000000	98.654224  
3304.000000	98.637696  
3303.000000	98.623543  
3302.000000	98.612406  
3301.000000	98.605324  
3300.000000	98.598532  
3299.000000	98.585206  
3298.000000	98.562940  
3297.000000	98.537456  
3296.000000	98.517520  
3295.000000	98.506954  
3294.000000	98.502839  
3293.000000	98.500417  
3292.000000	98.497437  
3291.000000	98.493496  
3290.000000	98.487469  
3289.000000	98.477450  
3288.000000	98.462638  
3287.000000	98.443991  
3286.000000	98.422951  
3285.000000	98.400260  
3284.000000	98.376517  
3283.000000	98.354128  
3282.000000	98.338079  
3281.000000	98.332773  
3280.000000	98.336376  
3279.000000	98.339739  
3278.000000	98.334103  
3277.000000	98.320253  
3276.000000	98.307607  
3275.000000	98.303352  
3274.000000	98.304473  
3273.000000	98.300966  
3272.000000	98.284207  
3271.000000	98.251900  
3270.000000	98.209170  
3269.000000	98.167692  
3268.000000	98.140179  
3267.000000	98.130686  
3266.000000	98.130238  
3265.000000	98.124736  
3264.000000	98.107471  
3263.000000	98.082929  
3262.000000	98.060295  
3261.000000	98.046032  
3260.000000	98.040825  
3259.000000	98.039404  
3258.000000	98.032831  
3257.000000	98.014408  
3256.000000	97.985225  
3255.000000	97.952950  
3254.000000	97.924992  
3253.000000	97.903805  
3252.000000	97.887937  
3251.000000	97.874873  
3250.000000	97.862325  
3249.000000	97.848640  
3248.000000	97.832564  
3247.000000	97.811924  
3246.000000	97.783790  
3245.000000	97.748740  
3244.000000	97.714612  
3243.000000	97.692018  
3242.000000	97.683774  
3241.000000	97.680425  
3240.000000	97.668241  
3239.000000	97.641711  
3238.000000	97.607761  
3237.000000	97.578474  
3236.000000	97.560251  
3235.000000	97.549178  
3234.000000	97.535590  
3233.000000	97.512627  
3232.000000	97.480756  
3231.000000	97.445064  
3230.000000	97.410038  
3229.000000	97.377649  
3228.000000	97.348554  
3227.000000	97.322787  
3226.000000	97.299742  
3225.000000	97.279624  
3224.000000	97.264913  
3223.000000	97.258057  
3222.000000	97.256740  
3221.000000	97.253032  
3220.000000	97.238678  
3219.000000	97.211174  
3218.000000	97.174595  
3217.000000	97.135709  
3216.000000	97.099996  
3215.000000	97.070239  
3214.000000	97.046960  
3213.000000	97.029012  
3212.000000	97.013717  
3211.000000	96.997522  
3210.000000	96.978203  
3209.000000	96.956774  
3208.000000	96.935482  
3207.000000	96.912855  
3206.000000	96.882696  
3205.000000	96.840692  
3204.000000	96.791409  
3203.000000	96.745622  
3202.000000	96.709558  
3201.000000	96.678796  
3200.000000	96.644222  
3199.000000	96.602706  
3198.000000	96.559973  
3197.000000	96.523096  
3196.000000	96.491810  
3195.000000	96.458271  
3194.000000	96.414786  
3193.000000	96.360633  
3192.000000	96.301140  
3191.000000	96.241523  
3190.000000	96.183468  
3189.000000	96.127289  
3188.000000	96.074342  
3187.000000	96.024906  
3186.000000	95.974985  
3185.000000	95.918518  
3184.000000	95.853886  
3183.000000	95.786799  
3182.000000	95.725328  
3181.000000	95.672320  
3180.000000	95.623089  
3179.000000	95.570199  
3178.000000	95.510099  
3177.000000	95.445290  
3176.000000	95.380674  
3175.000000	95.318630  
3174.000000	95.257785  
3173.000000	95.195653  
3172.000000	95.131503  
3171.000000	95.067001  
3170.000000	95.005342  
3169.000000	94.949885  
3168.000000	94.902274  
3167.000000	94.861052  
3166.000000	94.822657  
3165.000000	94.784129  
3164.000000	94.744194  
3163.000000	94.701829  
3162.000000	94.655081  
3161.000000	94.601883  
3160.000000	94.541238  
3159.000000	94.473801  
3158.000000	94.403047  
3157.000000	94.335931  
3156.000000	94.279234  
3155.000000	94.232703  
3154.000000	94.187127  
3153.000000	94.131676  
3152.000000	94.062988  
3151.000000	93.985478  
3150.000000	93.903762  
3149.000000	93.817823  
3148.000000	93.726524  
3147.000000	93.633436  
3146.000000	93.546372  
3145.000000	93.469896  
3144.000000	93.398651  
3143.000000	93.319708  
3142.000000	93.223481  
3141.000000	93.112687  
3140.000000	92.999081  
3139.000000	92.890721  
3138.000000	92.783939  
3137.000000	92.668858  
3136.000000	92.540856  
3135.000000	92.404364  
3134.000000	92.266370  
3133.000000	92.128941  
3132.000000	91.988721  
3131.000000	91.842109  
3130.000000	91.689809  
3129.000000	91.536432  
3128.000000	91.385499  
3127.000000	91.234340  
3126.000000	91.074467  
3125.000000	90.897954  
3124.000000	90.703660  
3123.000000	90.497461  
3122.000000	90.287716  
3121.000000	90.081227  
3120.000000	89.881703  
3119.000000	89.689190  
3118.000000	89.500191  
3117.000000	89.309517  
3116.000000	89.112792  
3115.000000	88.907531  
3114.000000	88.693417  
3113.000000	88.473351  
3112.000000	88.253578  
3111.000000	88.040255  
3110.000000	87.834818  
3109.000000	87.633636  
3108.000000	87.432669  
3107.000000	87.231733  
3106.000000	87.034043  
3105.000000	86.842483  
3104.000000	86.656591  
3103.000000	86.472257  
3102.000000	86.284030  
3101.000000	86.088982  
3100.000000	85.889124  
3099.000000	85.689174  
3098.000000	85.491196  
3097.000000	85.292340  
3096.000000	85.088904  
3095.000000	84.881700  
3094.000000	84.675427  
3093.000000	84.473105  
3092.000000	84.273793  
3091.000000	84.076701  
3090.000000	83.884836  
3089.000000	83.701952  
3088.000000	83.527478  
3087.000000	83.357924  
3086.000000	83.193360  
3085.000000	83.039247  
3084.000000	82.900684  
3083.000000	82.777621  
3082.000000	82.667337  
3081.000000	82.569344  
3080.000000	82.485402  
3079.000000	82.416067  
3078.000000	82.359795  
3077.000000	82.315232  
3076.000000	82.282864  
3075.000000	82.264892  
3074.000000	82.264796  
3073.000000	82.286099  
3072.000000	82.329636  
3071.000000	82.392140  
3070.000000	82.468581  
3069.000000	82.555444  
3068.000000	82.650860  
3067.000000	82.752729  
3066.000000	82.858603  
3065.000000	82.967058  
3064.000000	83.077584  
3063.000000	83.189597  
3062.000000	83.303414  
3061.000000	83.422007  
3060.000000	83.549270  
3059.000000	83.684962  
3058.000000	83.822153  
3057.000000	83.951191  
3056.000000	84.067103  
3055.000000	84.173084  
3054.000000	84.276409  
3053.000000	84.380942  
3052.000000	84.484145  
3051.000000	84.581687  
3050.000000	84.673558  
3049.000000	84.764100  
3048.000000	84.857082  
3047.000000	84.953287  
3046.000000	85.052269  
3045.000000	85.152175  
3044.000000	85.246419  
3043.000000	85.324882  
3042.000000	85.382398  
3041.000000	85.424762  
3040.000000	85.463615  
3039.000000	85.506585  
3038.000000	85.554342  
3037.000000	85.604340  
3036.000000	85.653227  
3035.000000	85.696652  
3034.000000	85.731299  
3033.000000	85.758085  
3032.000000	85.780894  
3031.000000	85.802493  
3030.000000	85.824599  
3029.000000	85.851193  
3028.000000	85.887101  
3027.000000	85.931818  
3026.000000	85.977983  
3025.000000	86.018157  
3024.000000	86.051404  
3023.000000	86.082262  
3022.000000	86.115231  
3021.000000	86.151252  
3020.000000	86.187330  
3019.000000	86.218671  
3018.000000	86.243286  
3017.000000	86.265513  
3016.000000	86.292584  
3015.000000	86.326277  
3014.000000	86.359827  
3013.000000	86.383983  
3012.000000	86.393879  
3011.000000	86.388725  
3010.000000	86.367140  
3009.000000	86.324396  
3008.000000	86.252490  
3007.000000	86.142849  
3006.000000	85.994408  
3005.000000	85.824816  
3004.000000	85.672925  
3003.000000	85.583455  
3002.000000	85.583332  
3001.000000	85.667836  
3000.000000	85.805796  
2999.000000	85.956699  
2998.000000	86.087114  
2997.000000	86.177737  
2996.000000	86.219542  
2995.000000	86.205203  
2994.000000	86.124360  
2993.000000	85.966639  
2992.000000	85.729490  
2991.000000	85.426275  
2990.000000	85.091671  
2989.000000	84.778569  
2988.000000	84.540333  
2987.000000	84.406136  
2986.000000	84.370189  
2985.000000	84.407321  
2984.000000	84.498879  
2983.000000	84.642166  
2982.000000	84.837060  
2981.000000	85.069356  
2980.000000	85.309944  
2979.000000	85.528379  
2978.000000	85.706041  
2977.000000	85.838865  
2976.000000	85.931161  
2975.000000	85.988270  
2974.000000	86.015429  
2973.000000	86.023997  
2972.000000	86.036498  
2971.000000	86.080082  
2970.000000	86.169950  
2969.000000	86.298428  
2968.000000	86.441848  
2967.000000	86.578024  
2966.000000	86.697059  
2965.000000	86.798745  
2964.000000	86.885297  
2963.000000	86.957439  
2962.000000	87.012861  
2961.000000	87.044969  
2960.000000	87.045043  
2959.000000	87.009053  
2958.000000	86.942096  
2957.000000	86.854214  
2956.000000	86.752644  
2955.000000	86.640530  
2954.000000	86.522268  
2953.000000	86.406456  
2952.000000	86.302163  
2951.000000	86.214580  
2950.000000	86.145548  
2949.000000	86.095526  
2948.000000	86.062186  
2947.000000	86.038253  
2946.000000	86.014150  
2945.000000	85.983952  
2944.000000	85.947708  
2943.000000	85.907607  
2942.000000	85.863274  
2941.000000	85.812153  
2940.000000	85.753999  
2939.000000	85.693494  
2938.000000	85.637205  
2937.000000	85.587889  
2936.000000	85.542648  
2935.000000	85.496698  
2934.000000	85.447532  
2933.000000	85.394494  
2932.000000	85.336696  
2931.000000	85.274723  
2930.000000	85.214049  
2929.000000	85.162789  
2928.000000	85.124026  
2927.000000	85.092678  
2926.000000	85.061761  
2925.000000	85.029779  
2924.000000	85.000064  
2923.000000	84.975364  
2922.000000	84.956372  
2921.000000	84.943956  
2920.000000	84.938871  
2919.000000	84.939189  
2918.000000	84.941427  
2917.000000	84.945378  
2916.000000	84.955252  
2915.000000	84.974491  
2914.000000	85.001029  
2913.000000	85.029384  
2912.000000	85.056226  
2911.000000	85.081882  
2910.000000	85.106699  
2909.000000	85.128596  
2908.000000	85.146152  
2907.000000	85.162866  
2906.000000	85.185273  
2905.000000	85.215199  
2904.000000	85.245734  
2903.000000	85.267136  
2902.000000	85.276198  
2901.000000	85.277300  
2900.000000	85.275187  
2899.000000	85.269226  
2898.000000	85.256179  
2897.000000	85.235285  
2896.000000	85.208559  
2895.000000	85.178075  
2894.000000	85.145260  
2893.000000	85.111337  
2892.000000	85.076158  
2891.000000	85.037504  
2890.000000	84.993533  
2889.000000	84.944930  
2888.000000	84.892816  
2887.000000	84.835999  
2886.000000	84.773232  
2885.000000	84.707669  
2884.000000	84.646114  
2883.000000	84.593295  
2882.000000	84.548608  
2881.000000	84.508188  
2880.000000	84.467888  
2879.000000	84.424607  
2878.000000	84.377830  
2877.000000	84.331200  
2876.000000	84.290252  
2875.000000	84.256946  
2874.000000	84.227668  
2873.000000	84.197899  
2872.000000	84.167548  
2871.000000	84.140113  
2870.000000	84.116925  
2869.000000	84.093794  
2868.000000	84.064277  
2867.000000	84.026474  
2866.000000	83.986550  
2865.000000	83.954640  
2864.000000	83.936235  
2863.000000	83.927441  
2862.000000	83.919039  
2861.000000	83.904597  
2860.000000	83.884513  
2859.000000	83.863919  
2858.000000	83.849165  
2857.000000	83.845945  
2856.000000	83.857785  
2855.000000	83.884272  
2854.000000	83.921137  
2853.000000	83.962988  
2852.000000	84.006049  
2851.000000	84.048667  
2850.000000	84.090162  
2849.000000	84.130048  
2848.000000	84.168419  
2847.000000	84.206640  
2846.000000	84.246568  
2845.000000	84.287581  
2844.000000	84.324052  
2843.000000	84.347655  
2842.000000	84.354171  
2841.000000	84.347869  
2840.000000	84.337985  
2839.000000	84.330983  
2838.000000	84.326983  
2837.000000	84.322433  
2836.000000	84.313889  
2835.000000	84.298780  
2834.000000	84.274685  
2833.000000	84.239841  
2832.000000	84.194887  
2831.000000	84.144115  
2830.000000	84.094593  
2829.000000	84.052083  
2828.000000	84.015676  
2827.000000	83.976910  
2826.000000	83.926505  
2825.000000	83.862744  
2824.000000	83.791498  
2823.000000	83.717972  
2822.000000	83.640901  
2821.000000	83.556516  
2820.000000	83.466028  
2819.000000	83.376157  
2818.000000	83.292721  
2817.000000	83.216326  
2816.000000	83.145009  
2815.000000	83.078609  
2814.000000	83.018611  
2813.000000	82.965128  
2812.000000	82.916731  
2811.000000	82.873544  
2810.000000	82.838235  
2809.000000	82.812629  
2808.000000	82.794737  
2807.000000	82.780773  
2806.000000	82.769475  
2805.000000	82.762901  
2804.000000	82.763216  
2803.000000	82.770025  
2802.000000	82.780571  
2801.000000	82.791258  
2800.000000	82.799277  
2799.000000	82.804468  
2798.000000	82.809535  
2797.000000	82.816766  
2796.000000	82.824718  
2795.000000	82.830549  
2794.000000	82.835995  
2793.000000	82.847946  
2792.000000	82.870773  
2791.000000	82.899958  
2790.000000	82.926200  
2789.000000	82.945586  
2788.000000	82.963612  
2787.000000	82.988859  
2786.000000	83.024304  
2785.000000	83.065240  
2784.000000	83.104393  
2783.000000	83.137865  
2782.000000	83.166347  
2781.000000	83.191734  
2780.000000	83.213919  
2779.000000	83.231155  
2778.000000	83.242418  
2777.000000	83.248235  
2776.000000	83.249873  
2775.000000	83.249164  
2774.000000	83.248456  
2773.000000	83.248454  
2772.000000	83.245779  
2771.000000	83.235070  
2770.000000	83.214758  
2769.000000	83.189440  
2768.000000	83.165483  
2767.000000	83.145599  
2766.000000	83.128486  
2765.000000	83.111952  
2764.000000	83.094488  
2763.000000	83.074384  
2762.000000	83.048788  
2761.000000	83.013888  
2760.000000	82.966301  
2759.000000	82.905493  
2758.000000	82.834894  
2757.000000	82.758800  
2756.000000	82.677710  
2755.000000	82.588557  
2754.000000	82.490022  
2753.000000	82.384834  
2752.000000	82.275457  
2751.000000	82.160518  
2750.000000	82.038381  
2749.000000	81.911981  
2748.000000	81.786541  
2747.000000	81.663369  
2746.000000	81.539507  
2745.000000	81.413815  
2744.000000	81.290779  
2743.000000	81.177559  
2742.000000	81.079057  
2741.000000	80.995991  
2740.000000	80.925711  
2739.000000	80.863943  
2738.000000	80.807177  
2737.000000	80.754882  
2736.000000	80.709654  
2735.000000	80.675102  
2734.000000	80.653322  
2733.000000	80.643528  
2732.000000	80.642481  
2731.000000	80.646912  
2730.000000	80.656260  
2729.000000	80.672857  
2728.000000	80.699292  
2727.000000	80.736601  
2726.000000	80.785409  
2725.000000	80.847278  
2724.000000	80.923210  
2723.000000	81.011197  
2722.000000	81.106510  
2721.000000	81.204491  
2720.000000	81.302464  
2719.000000	81.399314  
2718.000000	81.494341  
2717.000000	81.587231  
2716.000000	81.679184  
2715.000000	81.773542  
2714.000000	81.874370  
2713.000000	81.983667  
2712.000000	82.100516  
2711.000000	82.223620  
2710.000000	82.353922  
2709.000000	82.493535  
2708.000000	82.643129  
2707.000000	82.802282  
2706.000000	82.971683  
2705.000000	83.152207  
2704.000000	83.341422  
2703.000000	83.533619  
2702.000000	83.724391  
2701.000000	83.913497  
2700.000000	84.102610  
2699.000000	84.292416  
2698.000000	84.482774  
2697.000000	84.673076  
2696.000000	84.860508  
2695.000000	85.039920  
2694.000000	85.207891  
2693.000000	85.366227  
2692.000000	85.519903  
2691.000000	85.672315  
2690.000000	85.823665  
2689.000000	85.972367  
2688.000000	86.115936  
2687.000000	86.251230  
2686.000000	86.376053  
2685.000000	86.490817  
2684.000000	86.597664  
2683.000000	86.698071  
2682.000000	86.791678  
2681.000000	86.876519  
2680.000000	86.949880  
2679.000000	87.010787  
2678.000000	87.063242  
2677.000000	87.115603  
2676.000000	87.174239  
2675.000000	87.237597  
2674.000000	87.297551  
2673.000000	87.346247  
2672.000000	87.381328  
2671.000000	87.406191  
2670.000000	87.426975  
2669.000000	87.448366  
2668.000000	87.470429  
2667.000000	87.489462  
2666.000000	87.502281  
2665.000000	87.508570  
2664.000000	87.508594  
2663.000000	87.501015  
2662.000000	87.484830  
2661.000000	87.461686  
2660.000000	87.433815  
2659.000000	87.400581  
2658.000000	87.359035  
2657.000000	87.306895  
2656.000000	87.243287  
2655.000000	87.168065  
2654.000000	87.082688  
2653.000000	86.990520  
2652.000000	86.893789  
2651.000000	86.791242  
2650.000000	86.680855  
2649.000000	86.563268  
2648.000000	86.439954  
2647.000000	86.310033  
2646.000000	86.172518  
2645.000000	86.030415  
2644.000000	85.888595  
2643.000000	85.748311  
2642.000000	85.607540  
2641.000000	85.466064  
2640.000000	85.325786  
2639.000000	85.186030  
2638.000000	85.043200  
2637.000000	84.896465  
2636.000000	84.750231  
2635.000000	84.609533  
2634.000000	84.475807  
2633.000000	84.348130  
2632.000000	84.225650  
2631.000000	84.107119  
2630.000000	83.990035  
2629.000000	83.871698  
2628.000000	83.750139  
2627.000000	83.624042  
2626.000000	83.493489  
2625.000000	83.360828  
2624.000000	83.228997  
2623.000000	83.098898  
2622.000000	82.969744  
2621.000000	82.841146  
2620.000000	82.712945  
2619.000000	82.584146  
2618.000000	82.454598  
2617.000000	82.326840  
2616.000000	82.203173  
2615.000000	82.081004  
2614.000000	81.953668  
2613.000000	81.815972  
2612.000000	81.667376  
2611.000000	81.510876  
2610.000000	81.351155  
2609.000000	81.192758  
2608.000000	81.037570  
2607.000000	80.885495  
2606.000000	80.740383  
2605.000000	80.613275  
2604.000000	80.515455  
2603.000000	80.448735  
2602.000000	80.405820  
2601.000000	80.379175  
2600.000000	80.366082  
2599.000000	80.366639  
2598.000000	80.382270  
2597.000000	80.416864  
2596.000000	80.474801  
2595.000000	80.556205  
2594.000000	80.657121  
2593.000000	80.775158  
2592.000000	80.911558  
2591.000000	81.066323  
2590.000000	81.234658  
2589.000000	81.410824  
2588.000000	81.593930  
2587.000000	81.787481  
2586.000000	81.993322  
2585.000000	82.207269  
2584.000000	82.421120  
2583.000000	82.629081  
2582.000000	82.832047  
2581.000000	83.034638  
2580.000000	83.237727  
2579.000000	83.435733  
2578.000000	83.622582  
2577.000000	83.798321  
2576.000000	83.967597  
2575.000000	84.133529  
2574.000000	84.296237  
2573.000000	84.455551  
2572.000000	84.610240  
2571.000000	84.754417  
2570.000000	84.879944  
2569.000000	84.985269  
2568.000000	85.079237  
2567.000000	85.173652  
2566.000000	85.273081  
2565.000000	85.372593  
2564.000000	85.463238  
2563.000000	85.538476  
2562.000000	85.597320  
2561.000000	85.643530  
2560.000000	85.681976  
2559.000000	85.715573  
2558.000000	85.745664  
2557.000000	85.773487  
2556.000000	85.798962  
2555.000000	85.819310  
2554.000000	85.832059  
2553.000000	85.838865  
2552.000000	85.842714  
2551.000000	85.841391  
2550.000000	85.827929  
2549.000000	85.798890  
2548.000000	85.758630  
2547.000000	85.713405  
2546.000000	85.664334  
2545.000000	85.608740  
2544.000000	85.546636  
2543.000000	85.483635  
2542.000000	85.428234  
2541.000000	85.387010  
2540.000000	85.360627  
2539.000000	85.343024  
2538.000000	85.325590  
2537.000000	85.303665  
2536.000000	85.279216  
2535.000000	85.257732  
2534.000000	85.243993  
2533.000000	85.240432  
2532.000000	85.246793  
2531.000000	85.259612  
2530.000000	85.273287  
2529.000000	85.283565  
2528.000000	85.290298  
2527.000000	85.296239  
2526.000000	85.303107  
2525.000000	85.309173  
2524.000000	85.310973  
2523.000000	85.307480  
2522.000000	85.302055  
2521.000000	85.299836  
2520.000000	85.304273  
2519.000000	85.317918  
2518.000000	85.345582  
2517.000000	85.393214  
2516.000000	85.462547  
2515.000000	85.549652  
2514.000000	85.650217  
2513.000000	85.763559  
2512.000000	85.889497  
2511.000000	86.024148  
2510.000000	86.162234  
2509.000000	86.302716  
2508.000000	86.449631  
2507.000000	86.607642  
2506.000000	86.778042  
2505.000000	86.957863  
2504.000000	87.140674  
2503.000000	87.318478  
2502.000000	87.484649  
2501.000000	87.636359  
2500.000000	87.775536  
2499.000000	87.908359  
2498.000000	88.041550  
2497.000000	88.175195  
2496.000000	88.299739  
2495.000000	88.405273  
2494.000000	88.494592  
2493.000000	88.580799  
2492.000000	88.669416  
2491.000000	88.750062  
2490.000000	88.811367  
2489.000000	88.857711  
2488.000000	88.902802  
2487.000000	88.950978  
2486.000000	88.994952  
2485.000000	89.031037  
2484.000000	89.066579  
2483.000000	89.110193  
2482.000000	89.162291  
2481.000000	89.217733  
2480.000000	89.271444  
2479.000000	89.318972  
2478.000000	89.358062  
2477.000000	89.393858  
2476.000000	89.438009  
2475.000000	89.498393  
2474.000000	89.572100  
2473.000000	89.650690  
2472.000000	89.729760  
2471.000000	89.811694  
2470.000000	89.901890  
2469.000000	90.003625  
2468.000000	90.113577  
2467.000000	90.221301  
2466.000000	90.316403  
2465.000000	90.397545  
2464.000000	90.471482  
2463.000000	90.543312  
2462.000000	90.612511  
2461.000000	90.679198  
2460.000000	90.747580  
2459.000000	90.819423  
2458.000000	90.889114  
2457.000000	90.949814  
2456.000000	91.001000  
2455.000000	91.045982  
2454.000000	91.085852  
2453.000000	91.121658  
2452.000000	91.160521  
2451.000000	91.213303  
2450.000000	91.284817  
2449.000000	91.369146  
2448.000000	91.454814  
2447.000000	91.532469  
2446.000000	91.597825  
2445.000000	91.650346  
2444.000000	91.691450  
2443.000000	91.724647  
2442.000000	91.756891  
2441.000000	91.796787  
2440.000000	91.847363  
2439.000000	91.900509  
2438.000000	91.943179  
2437.000000	91.971681  
2436.000000	91.997034  
2435.000000	92.033447  
2434.000000	92.083367  
2433.000000	92.136041  
2432.000000	92.179135  
2431.000000	92.209588  
2430.000000	92.234420  
2429.000000	92.263337  
2428.000000	92.300493  
2427.000000	92.342341  
2426.000000	92.383419  
2425.000000	92.423468  
2424.000000	92.467347  
2423.000000	92.518504  
2422.000000	92.575127  
2421.000000	92.632913  
2420.000000	92.689089  
2419.000000	92.743060  
2418.000000	92.795388  
2417.000000	92.847023  
2416.000000	92.898270  
2415.000000	92.948739  
2414.000000	92.999371  
2413.000000	93.052065  
2412.000000	93.104065  
2411.000000	93.146011  
2410.000000	93.172305  
2409.000000	93.192195  
2408.000000	93.221680  
2407.000000	93.261862  
2406.000000	93.293934  
2405.000000	93.301448  
2404.000000	93.291544  
2403.000000	93.287473  
2402.000000	93.304347  
2401.000000	93.339578  
2400.000000	93.384237  
2399.000000	93.434649  
2398.000000	93.490203  
2397.000000	93.545779  
2396.000000	93.592061  
2395.000000	93.623503  
2394.000000	93.643820  
2393.000000	93.662538  
2392.000000	93.686280  
2391.000000	93.713976  
2390.000000	93.740849  
2389.000000	93.765345  
2388.000000	93.790207  
2387.000000	93.818183  
2386.000000	93.850128  
2385.000000	93.887102  
2384.000000	93.930273  
2383.000000	93.977274  
2382.000000	94.022141  
2381.000000	94.061498  
2380.000000	94.098183  
2379.000000	94.135913  
2378.000000	94.173284  
2377.000000	94.205972  
2376.000000	94.232693  
2375.000000	94.256351  
2374.000000	94.280624  
2373.000000	94.309808  
2372.000000	94.345789  
2371.000000	94.382732  
2370.000000	94.410397  
2369.000000	94.428232  
2368.000000	94.446300  
2367.000000	94.466990  
2366.000000	94.476531  
2365.000000	94.465920  
2364.000000	94.451922  
2363.000000	94.471195  
2362.000000	94.541953  
2361.000000	94.639255  
2360.000000	94.720517  
2359.000000	94.751107  
2358.000000	94.728314  
2357.000000	94.687842  
2356.000000	94.669091  
2355.000000	94.698991  
2354.000000	94.776066  
2353.000000	94.876699  
2352.000000	94.954278  
2351.000000	94.966943  
2350.000000	94.927152  
2349.000000	94.877839  
2348.000000	94.857796  
2347.000000	94.872480  
2346.000000	94.893544  
2345.000000	94.900868  
2344.000000	94.890619  
2343.000000	94.894125  
2342.000000	94.924584  
2341.000000	94.972548  
2340.000000	95.025474  
2339.000000	95.071706  
2338.000000	95.105528  
2337.000000	95.112978  
2336.000000	95.093266  
2335.000000	95.055718  
2334.000000	95.026558  
2333.000000	95.012225  
2332.000000	95.009297  
2331.000000	94.997269  
2330.000000	94.990209  
2329.000000	94.987335  
2328.000000	94.981328  
2327.000000	94.944318  
2326.000000	94.872646  
2325.000000	94.798571  
2324.000000	94.760409  
2323.000000	94.777207  
2322.000000	94.825576  
2321.000000	94.870292  
2320.000000	94.895652  
2319.000000	94.903526  
2318.000000	94.909888  
2317.000000	94.918217  
2316.000000	94.937563  
2315.000000	94.961836  
2314.000000	94.990186  
2313.000000	95.004930  
2312.000000	94.998518  
2311.000000	94.963752  
2310.000000	94.918967  
2309.000000	94.882571  
2308.000000	94.869857  
2307.000000	94.870115  
2306.000000	94.866388  
2305.000000	94.840507  
2304.000000	94.790936  
2303.000000	94.724684  
2302.000000	94.663236  
2301.000000	94.624165  
2300.000000	94.615647  
2299.000000	94.622668  
2298.000000	94.628541  
2297.000000	94.625858  
2296.000000	94.625616  
2295.000000	94.639548  
2294.000000	94.672947  
2293.000000	94.719314  
2292.000000	94.764615  
2291.000000	94.794883  
2290.000000	94.808741  
2289.000000	94.821477  
2288.000000	94.849503  
2287.000000	94.894500  
2286.000000	94.944775  
2285.000000	94.991829  
2284.000000	95.034440  
2283.000000	95.072874  
2282.000000	95.107132  
2281.000000	95.142730  
2280.000000	95.184025  
2279.000000	95.221186  
2278.000000	95.236238  
2277.000000	95.227093  
2276.000000	95.213590  
2275.000000	95.210498  
2274.000000	95.207919  
2273.000000	95.186195  
2272.000000	95.143515  
2271.000000	95.096865  
2270.000000	95.062505  
2269.000000	95.044778  
2268.000000	95.040074  
2267.000000	95.041407  
2266.000000	95.040547  
2265.000000	95.034154  
2264.000000	95.030764  
2263.000000	95.045568  
2262.000000	95.084897  
2261.000000	95.138454  
2260.000000	95.189424  
2259.000000	95.235245  
2258.000000	95.293165  
2257.000000	95.380289  
2256.000000	95.487614  
2255.000000	95.583251  
2254.000000	95.647061  
2253.000000	95.692706  
2252.000000	95.748127  
2251.000000	95.821167  
2250.000000	95.897442  
2249.000000	95.964057  
2248.000000	96.022171  
2247.000000	96.076807  
2246.000000	96.128842  
2245.000000	96.175782  
2244.000000	96.209761  
2243.000000	96.218446  
2242.000000	96.202472  
2241.000000	96.188715  
2240.000000	96.207581  
2239.000000	96.256292  
2238.000000	96.301855  
2237.000000	96.321300  
2236.000000	96.321048  
2235.000000	96.315857  
2234.000000	96.311878  
2233.000000	96.317458  
2232.000000	96.346428  
2231.000000	96.396101  
2230.000000	96.438815  
2229.000000	96.450593  
2228.000000	96.438275  
2227.000000	96.427305  
2226.000000	96.433463  
2225.000000	96.456022  
2224.000000	96.487439  
2223.000000	96.519043  
2222.000000	96.544316  
2221.000000	96.563448  
2220.000000	96.578782  
2219.000000	96.585127  
2218.000000	96.575838  
2217.000000	96.558498  
2216.000000	96.549721  
2215.000000	96.554162  
2214.000000	96.566533  
2213.000000	96.593993  
2212.000000	96.651769  
2211.000000	96.729906  
2210.000000	96.788348  
2209.000000	96.797393  
2208.000000	96.764880  
2207.000000	96.713701  
2206.000000	96.654781  
2205.000000	96.595645  
2204.000000	96.553422  
2203.000000	96.541434  
2202.000000	96.557365  
2201.000000	96.595612  
2200.000000	96.652969  
2199.000000	96.709826  
2198.000000	96.727409  
2197.000000	96.685381  
2196.000000	96.610644  
2195.000000	96.551654  
2194.000000	96.533106  
2193.000000	96.544453  
2192.000000	96.558049  
2191.000000	96.548843  
2190.000000	96.511536  
2189.000000	96.469097  
2188.000000	96.449226  
2187.000000	96.445846  
2186.000000	96.425708  
2185.000000	96.381386  
2184.000000	96.349550  
2183.000000	96.358740  
2182.000000	96.385766  
2181.000000	96.387159  
2180.000000	96.352416  
2179.000000	96.302114  
2178.000000	96.253640  
2177.000000	96.212649  
2176.000000	96.181109  
2175.000000	96.151747  
2174.000000	96.107921  
2173.000000	96.046361  
2172.000000	95.985723  
2171.000000	95.938194  
2170.000000	95.889740  
2169.000000	95.823531  
2168.000000	95.745988  
2167.000000	95.672635  
2166.000000	95.604811  
2165.000000	95.539330  
2164.000000	95.487462  
2163.000000	95.468683  
2162.000000	95.500821  
2161.000000	95.604810  
2160.000000	95.787693  
2159.000000	95.999300  
2158.000000	96.143817  
2157.000000	96.166292  
2156.000000	96.091506  
2155.000000	95.963617  
2154.000000	95.797860  
2153.000000	95.607579  
2152.000000	95.432210  
2151.000000	95.304878  
2150.000000	95.214117  
2149.000000	95.123679  
2148.000000	95.015978  
2147.000000	94.895640  
2146.000000	94.767709  
2145.000000	94.637803  
2144.000000	94.521038  
2143.000000	94.425321  
2142.000000	94.331353  
2141.000000	94.208422  
2140.000000	94.047331  
2139.000000	93.864802  
2138.000000	93.682256  
2137.000000	93.514458  
2136.000000	93.372806  
2135.000000	93.263891  
2134.000000	93.182990  
2133.000000	93.116182  
2132.000000	93.049315  
2131.000000	92.972700  
2130.000000	92.882322  
2129.000000	92.782237  
2128.000000	92.683107  
2127.000000	92.594788  
2126.000000	92.522226  
2125.000000	92.467339  
2124.000000	92.427894  
2123.000000	92.393770  
2122.000000	92.353525  
2121.000000	92.309794  
2120.000000	92.281453  
2119.000000	92.284257  
2118.000000	92.313519  
2117.000000	92.350818  
2116.000000	92.384619  
2115.000000	92.419432  
2114.000000	92.466362  
2113.000000	92.529007  
2112.000000	92.599017  
2111.000000	92.664607  
2110.000000	92.723731  
2109.000000	92.787289  
2108.000000	92.866691  
2107.000000	92.960817  
2106.000000	93.059409  
2105.000000	93.154693  
2104.000000	93.241982  
2103.000000	93.314456  
2102.000000	93.372179  
2101.000000	93.435762  
2100.000000	93.533109  
2099.000000	93.665798  
2098.000000	93.802684  
2097.000000	93.915305  
2096.000000	94.007033  
2095.000000	94.097186  
2094.000000	94.190612  
2093.000000	94.278370  
2092.000000	94.357719  
2091.000000	94.433925  
2090.000000	94.507137  
2089.000000	94.572870  
2088.000000	94.634932  
2087.000000	94.705196  
2086.000000	94.787790  
2085.000000	94.871361  
2084.000000	94.940876  
2083.000000	94.994766  
2082.000000	95.048576  
2081.000000	95.119589  
2080.000000	95.204962  
2079.000000	95.279942  
2078.000000	95.326837  
2077.000000	95.361705  
2076.000000	95.416740  
2075.000000	95.497127  
2074.000000	95.576625  
2073.000000	95.640220  
2072.000000	95.706435  
2071.000000	95.792451  
2070.000000	95.879756  
2069.000000	95.936719  
2068.000000	95.961815  
2067.000000	95.981604  
2066.000000	96.014499  
2065.000000	96.056830  
2064.000000	96.098278  
2063.000000	96.131387  
2062.000000	96.148326  
2061.000000	96.144350  
2060.000000	96.123276  
2059.000000	96.090180  
2058.000000	96.045562  
2057.000000	95.994899  
2056.000000	95.950436  
2055.000000	95.910817  
2054.000000	95.855107  
2053.000000	95.776974  
2052.000000	95.712788  
2051.000000	95.712417  
2050.000000	95.784354  
2049.000000	95.885925  
2048.000000	95.972316  
2047.000000	96.037734  
2046.000000	96.099968  
2045.000000	96.165671  
2044.000000	96.222763  
2043.000000	96.254772  
2042.000000	96.256593  
2041.000000	96.243688  
2040.000000	96.244515  
2039.000000	96.275047  
2038.000000	96.324075  
2037.000000	96.369768  
2036.000000	96.405139  
2035.000000	96.440232  
2034.000000	96.486221  
2033.000000	96.545197  
2032.000000	96.607444  
2031.000000	96.653722  
2030.000000	96.673072  
2029.000000	96.684654  
2028.000000	96.723997  
2027.000000	96.797450  
2026.000000	96.870230  
2025.000000	96.910768  
2024.000000	96.928028  
2023.000000	96.949408  
2022.000000	96.982604  
2021.000000	97.017995  
2020.000000	97.050869  
2019.000000	97.081118  
2018.000000	97.102539  
2017.000000	97.108490  
2016.000000	97.098597  
2015.000000	97.071922  
2014.000000	97.031333  
2013.000000	97.000830  
2012.000000	97.011714  
2011.000000	97.059951  
2010.000000	97.106493  
2009.000000	97.136189  
2008.000000	97.185579  
2007.000000	97.284128  
2006.000000	97.397011  
2005.000000	97.463039  
2004.000000	97.470087  
2003.000000	97.457036  
2002.000000	97.456951  
2001.000000	97.469290  
2000.000000	97.477184  
1999.000000	97.466428  
1998.000000	97.430034  
1997.000000	97.375246  
1996.000000	97.325661  
1995.000000	97.304333  
1994.000000	97.317149  
1993.000000	97.356467  
1992.000000	97.410285  
1991.000000	97.461056  
1990.000000	97.488361  
1989.000000	97.485150  
1988.000000	97.463237  
1987.000000	97.435905  
1986.000000	97.406277  
1985.000000	97.377430  
1984.000000	97.357321  
1983.000000	97.345416  
1982.000000	97.331924  
1981.000000	97.320224  
1980.000000	97.332538  
1979.000000	97.382760  
1978.000000	97.460235  
1977.000000	97.551395  
1976.000000	97.652583  
1975.000000	97.748002  
1974.000000	97.806461  
1973.000000	97.819267  
1972.000000	97.814068  
1971.000000	97.812997  
1970.000000	97.804976  
1969.000000	97.776428  
1968.000000	97.740255  
1967.000000	97.711668  
1966.000000	97.680050  
1965.000000	97.631579  
1964.000000	97.580571  
1963.000000	97.555642  
1962.000000	97.569420  
1961.000000	97.613757  
1960.000000	97.669081  
1959.000000	97.709453  
1958.000000	97.717574  
1957.000000	97.706070  
1956.000000	97.705122  
1955.000000	97.720835  
1954.000000	97.727304  
1953.000000	97.709213  
1952.000000	97.687778  
1951.000000	97.688550  
1950.000000	97.707682  
1949.000000	97.727301  
1948.000000	97.743477  
1947.000000	97.759357  
1946.000000	97.768106  
1945.000000	97.763581  
1944.000000	97.755421  
1943.000000	97.755993  
1942.000000	97.762758  
1941.000000	97.768497  
1940.000000	97.776643  
1939.000000	97.792568  
1938.000000	97.814193  
1937.000000	97.842680  
1936.000000	97.886998  
1935.000000	97.944333  
1934.000000	97.990223  
1933.000000	98.003875  
1932.000000	97.992652  
1931.000000	97.977166  
1930.000000	97.966606  
1929.000000	97.961656  
1928.000000	97.966828  
1927.000000	97.982630  
1926.000000	97.995191  
1925.000000	97.991474  
1924.000000	97.975803  
1923.000000	97.961814  
1922.000000	97.954656  
1921.000000	97.953239  
1920.000000	97.959989  
1919.000000	97.974216  
1918.000000	97.985469  
1917.000000	97.988526  
1916.000000	97.993546  
1915.000000	98.008789  
1914.000000	98.026669  
1913.000000	98.037012  
1912.000000	98.042196  
1911.000000	98.047568  
1910.000000	98.048329  
1909.000000	98.040447  
1908.000000	98.035286  
1907.000000	98.046828  
1906.000000	98.071509  
1905.000000	98.095046  
1904.000000	98.109042  
1903.000000	98.112224  
1902.000000	98.103525  
1901.000000	98.085807  
1900.000000	98.069259  
1899.000000	98.061716  
1898.000000	98.062794  
1897.000000	98.074480  
1896.000000	98.103883  
1895.000000	98.146842  
1894.000000	98.182010  
1893.000000	98.195011  
1892.000000	98.196112  
1891.000000	98.201933  
1890.000000	98.212401  
1889.000000	98.217936  
1888.000000	98.219226  
1887.000000	98.224576  
1886.000000	98.237038  
1885.000000	98.255357  
1884.000000	98.277969  
1883.000000	98.296647  
1882.000000	98.297257  
1881.000000	98.277887  
1880.000000	98.256472  
1879.000000	98.248974  
1878.000000	98.249688  
1877.000000	98.244654  
1876.000000	98.233506  
1875.000000	98.225109  
1874.000000	98.221252  
1873.000000	98.216465  
1872.000000	98.206450  
1871.000000	98.187392  
1870.000000	98.156072  
1869.000000	98.122209  
1868.000000	98.107082  
1867.000000	98.114591  
1866.000000	98.125917  
1865.000000	98.130246  
1864.000000	98.136945  
1863.000000	98.152345  
1862.000000	98.162853  
1861.000000	98.153787  
1860.000000	98.132829  
1859.000000	98.118574  
1858.000000	98.115249  
1857.000000	98.114556  
1856.000000	98.112945  
1855.000000	98.111375  
1854.000000	98.106883  
1853.000000	98.098315  
1852.000000	98.093218  
1851.000000	98.099076  
1850.000000	98.110761  
1849.000000	98.119378  
1848.000000	98.124748  
1847.000000	98.129533  
1846.000000	98.128502  
1845.000000	98.117335  
1844.000000	98.108648  
1843.000000	98.118914  
1842.000000	98.143646  
1841.000000	98.167331  
1840.000000	98.182645  
1839.000000	98.191292  
1838.000000	98.198030  
1837.000000	98.209370  
1836.000000	98.227615  
1835.000000	98.244171  
1834.000000	98.247423  
1833.000000	98.239292  
1832.000000	98.233891  
1831.000000	98.239017  
1830.000000	98.248745  
1829.000000	98.260050  
1828.000000	98.278159  
1827.000000	98.301638  
1826.000000	98.317275  
1825.000000	98.318272  
1824.000000	98.316965  
1823.000000	98.322738  
1822.000000	98.326051  
1821.000000	98.319432  
1820.000000	98.316302  
1819.000000	98.332591  
1818.000000	98.359491  
1817.000000	98.373884  
1816.000000	98.367182  
1815.000000	98.346640  
1814.000000	98.315649  
1813.000000	98.273036  
1812.000000	98.228468  
1811.000000	98.197917  
1810.000000	98.183962  
1809.000000	98.175726  
1808.000000	98.167379  
1807.000000	98.160224  
1806.000000	98.151084  
1805.000000	98.135377  
1804.000000	98.117074  
1803.000000	98.102773  
1802.000000	98.090373  
1801.000000	98.074624  
1800.000000	98.061698  
1799.000000	98.057809  
1798.000000	98.053482  
1797.000000	98.035945  
1796.000000	98.009102  
1795.000000	97.986089  
1794.000000	97.969507  
1793.000000	97.952535  
1792.000000	97.939137  
1791.000000	97.938778  
1790.000000	97.943081  
1789.000000	97.936599  
1788.000000	97.918769  
1787.000000	97.898469  
1786.000000	97.878397  
1785.000000	97.856543  
1784.000000	97.837034  
1783.000000	97.824550  
1782.000000	97.812597  
1781.000000	97.788986  
1780.000000	97.754969  
1779.000000	97.718445  
1778.000000	97.676241  
1777.000000	97.617795  
1776.000000	97.542003  
1775.000000	97.457769  
1774.000000	97.370414  
1773.000000	97.283133  
1772.000000	97.209610  
1771.000000	97.159324  
1770.000000	97.116388  
1769.000000	97.060915  
1768.000000	96.989840  
1767.000000	96.910906  
1766.000000	96.825377  
1765.000000	96.726164  
1764.000000	96.610174  
1763.000000	96.482787  
1762.000000	96.357679  
1761.000000	96.250824  
1760.000000	96.167660  
1759.000000	96.094075  
1758.000000	96.006633  
1757.000000	95.893772  
1756.000000	95.770784  
1755.000000	95.658096  
1754.000000	95.555198  
1753.000000	95.452099  
1752.000000	95.349861  
1751.000000	95.259392  
1750.000000	95.184385  
1749.000000	95.120319  
1748.000000	95.064447  
1747.000000	95.016374  
1746.000000	94.971806  
1745.000000	94.928807  
1744.000000	94.894217  
1743.000000	94.871777  
1742.000000	94.854892  
1741.000000	94.840749  
1740.000000	94.843137  
1739.000000	94.875817  
1738.000000	94.935173  
1737.000000	95.020570  
1736.000000	95.161818  
1735.000000	95.394684  
1734.000000	95.689769  
1733.000000	95.956608  
1732.000000	96.151981  
1731.000000	96.297246  
1730.000000	96.420926  
1729.000000	96.545560  
1728.000000	96.690205  
1727.000000	96.857673  
1726.000000	97.028244  
1725.000000	97.177967  
1724.000000	97.297932  
1723.000000	97.385729  
1722.000000	97.435688  
1721.000000	97.448298  
1720.000000	97.438818  
1719.000000	97.423773  
1718.000000	97.409067  
1717.000000	97.404143  
1716.000000	97.428194  
1715.000000	97.484390  
1714.000000	97.548544  
1713.000000	97.596573  
1712.000000	97.628922  
1711.000000	97.655437  
1710.000000	97.673492  
1709.000000	97.674979  
1708.000000	97.665972  
1707.000000	97.659935  
1706.000000	97.653522  
1705.000000	97.633655  
1704.000000	97.602178  
1703.000000	97.572244  
1702.000000	97.547609  
1701.000000	97.517826  
1700.000000	97.483211  
1699.000000	97.463670  
1698.000000	97.448096  
1697.000000	97.418902  
1696.000000	97.387296  
1695.000000	97.372618  
1694.000000	97.364085  
1693.000000	97.343303  
1692.000000	97.312875  
1691.000000	97.279450  
1690.000000	97.234336  
1689.000000	97.165843  
1688.000000	97.081893  
1687.000000	96.998522  
1686.000000	96.911502  
1685.000000	96.808730  
1684.000000	96.719079  
1683.000000	96.680367  
1682.000000	96.658891  
1681.000000	96.621021  
1680.000000	96.568367  
1679.000000	96.511353  
1678.000000	96.441470  
1677.000000	96.340598  
1676.000000	96.208251  
1675.000000	96.065910  
1674.000000	95.927538  
1673.000000	95.780266  
1672.000000	95.607559  
1671.000000	95.393090  
1670.000000	95.121636  
1669.000000	94.807762  
1668.000000	94.498328  
1667.000000	94.217500  
1666.000000	93.940869  
1665.000000	93.625088  
1664.000000	93.251509  
1663.000000	92.843998  
1662.000000	92.443982  
1661.000000	92.068319  
1660.000000	91.716009  
1659.000000	91.384553  
1658.000000	91.064141  
1657.000000	90.741159  
1656.000000	90.416717  
1655.000000	90.098258  
1654.000000	89.782645  
1653.000000	89.500151  
1652.000000	89.303227  
1651.000000	89.153584  
1650.000000	88.987510  
1649.000000	88.752018  
1648.000000	88.438642  
1647.000000	88.096959  
1646.000000	87.773742  
1645.000000	87.448256  
1644.000000	87.093347  
1643.000000	86.707464  
1642.000000	86.281283  
1641.000000	85.805589  
1640.000000	85.308860  
1639.000000	84.829308  
1638.000000	84.343139  
1637.000000	83.770090  
1636.000000	83.092309  
1635.000000	82.420891  
1634.000000	81.821324  
1633.000000	81.234839  
1632.000000	80.605988  
1631.000000	79.930716  
1630.000000	79.211285  
1629.000000	78.442833  
1628.000000	77.662994  
1627.000000	76.947906  
1626.000000	76.322527  
1625.000000	75.741225  
1624.000000	75.181213  
1623.000000	74.696737  
1622.000000	74.338335  
1621.000000	74.080752  
1620.000000	73.890532  
1619.000000	73.787394  
1618.000000	73.820825  
1617.000000	74.016162  
1616.000000	74.339461  
1615.000000	74.715837  
1614.000000	75.083966  
1613.000000	75.421329  
1612.000000	75.728997  
1611.000000	75.995206  
1610.000000	76.165459  
1609.000000	76.165873  
1608.000000	75.952079  
1607.000000	75.513627  
1606.000000	74.845834  
1605.000000	73.945400  
1604.000000	72.834977  
1603.000000	71.560660  
1602.000000	70.151265  
1601.000000	68.604655  
1600.000000	66.929913  
1599.000000	65.167767  
1598.000000	63.346765  
1597.000000	61.463236  
1596.000000	59.544728  
1595.000000	57.692771  
1594.000000	56.010831  
1593.000000	54.528297  
1592.000000	53.248357  
1591.000000	52.211469  
1590.000000	51.447024  
1589.000000	50.917010  
1588.000000	50.572151  
1587.000000	50.410761  
1586.000000	50.428170  
1585.000000	50.569776  
1584.000000	50.792729  
1583.000000	51.116235  
1582.000000	51.549582  
1581.000000	52.028357  
1580.000000	52.484978  
1579.000000	52.938951  
1578.000000	53.475996  
1577.000000	54.165348  
1576.000000	54.978736  
1575.000000	55.777071  
1574.000000	56.430866  
1573.000000	56.921770  
1572.000000	57.333429  
1571.000000	57.803609  
1570.000000	58.411408  
1569.000000	59.072170  
1568.000000	59.659595  
1567.000000	60.179576  
1566.000000	60.712580  
1565.000000	61.283417  
1564.000000	61.839001  
1563.000000	62.323265  
1562.000000	62.736373  
1561.000000	63.160414  
1560.000000	63.786986  
1559.000000	64.759773  
1558.000000	65.798584  
1557.000000	66.558637  
1556.000000	67.107919  
1555.000000	67.648052  
1554.000000	68.257061  
1553.000000	68.860471  
1552.000000	69.384739  
1551.000000	69.856877  
1550.000000	70.326935  
1549.000000	70.773479  
1548.000000	71.141182  
1547.000000	71.429879  
1546.000000	71.683207  
1545.000000	71.924040  
1544.000000	72.135790  
1543.000000	72.300955  
1542.000000	72.425243  
1541.000000	72.527861  
1540.000000	72.628411  
1539.000000	72.712624  
1538.000000	72.724515  
1537.000000	72.633447  
1536.000000	72.441976  
1535.000000	72.176050  
1534.000000	71.891450  
1533.000000	71.648515  
1532.000000	71.458396  
1531.000000	71.301638  
1530.000000	71.184889  
1529.000000	71.138103  
1528.000000	71.189815  
1527.000000	71.354122  
1526.000000	71.608685  
1525.000000	71.881485  
1524.000000	72.107786  
1523.000000	72.298943  
1522.000000	72.526809  
1521.000000	72.818146  
1520.000000	73.104375  
1519.000000	73.343536  
1518.000000	73.588138  
1517.000000	73.908009  
1516.000000	74.303429  
1515.000000	74.720491  
1514.000000	75.137510  
1513.000000	75.569389  
1512.000000	76.015271  
1511.000000	76.447022  
1510.000000	76.845849  
1509.000000	77.231844  
1508.000000	77.677712  
1507.000000	78.277434  
1506.000000	78.985137  
1505.000000	79.603394  
1504.000000	80.064606  
1503.000000	80.444809  
1502.000000	80.823125  
1501.000000	81.225250  
1500.000000	81.636939  
1499.000000	82.059989  
1498.000000	82.531653  
1497.000000	83.069498  
1496.000000	83.628155  
1495.000000	84.146823  
1494.000000	84.603800  
1493.000000	85.007713  
1492.000000	85.391126  
1491.000000	85.806049  
1490.000000	86.271189  
1489.000000	86.729281  
1488.000000	87.120771  
1487.000000	87.451447  
1486.000000	87.736746  
1485.000000	87.956630  
1484.000000	88.100767  
1483.000000	88.208517  
1482.000000	88.328436  
1481.000000	88.463876  
1480.000000	88.585416  
1479.000000	88.677484  
1478.000000	88.732186  
1477.000000	88.727269  
1476.000000	88.650787  
1475.000000	88.521375  
1474.000000	88.347019  
1473.000000	88.106158  
1472.000000	87.808324  
1471.000000	87.500372  
1470.000000	87.188151  
1469.000000	86.834606  
1468.000000	86.417241  
1467.000000	85.940366  
1466.000000	85.402214  
1465.000000	84.795524  
1464.000000	84.151105  
1463.000000	83.507271  
1462.000000	82.839277  
1461.000000	82.073549  
1460.000000	81.125287  
1459.000000	79.872231  
1458.000000	78.171710  
1457.000000	76.164541  
1456.000000	74.441201  
1455.000000	73.409270  
1454.000000	72.999278  
1453.000000	73.026564  
1452.000000	73.354065  
1451.000000	73.856199  
1450.000000	74.457555  
1449.000000	75.197743  
1448.000000	76.165524  
1447.000000	77.367870  
1446.000000	78.723111  
1445.000000	80.143477  
1444.000000	81.556953  
1443.000000	82.890631  
1442.000000	84.082668  
1441.000000	85.091275  
1440.000000	85.898845  
1439.000000	86.538764  
1438.000000	87.096819  
1437.000000	87.634422  
1436.000000	88.110446  
1435.000000	88.464080  
1434.000000	88.715645  
1433.000000	88.906844  
1432.000000	89.040337  
1431.000000	89.106937  
1430.000000	89.119991  
1429.000000	89.087591  
1428.000000	88.986054  
1427.000000	88.793010  
1426.000000	88.504519  
1425.000000	88.109633  
1424.000000	87.600193  
1423.000000	86.997274  
1422.000000	86.300267  
1421.000000	85.413048  
1420.000000	84.188623  
1419.000000	82.609259  
1418.000000	80.835945  
1417.000000	78.959955  
1416.000000	76.933415  
1415.000000	74.735692  
1414.000000	72.434913  
1413.000000	70.158410  
1412.000000	68.100311  
1411.000000	66.498653  
1410.000000	65.516093  
1409.000000	65.190244  
1408.000000	65.513862  
1407.000000	66.459401  
1406.000000	67.921897  
1405.000000	69.718931  
1404.000000	71.648448  
1403.000000	73.541677  
1402.000000	75.323247  
1401.000000	77.029188  
1400.000000	78.717850  
1399.000000	80.344745  
1398.000000	81.790262  
1397.000000	83.019901  
1396.000000	84.109947  
1395.000000	85.126937  
1394.000000	86.051753  
1393.000000	86.831041  
1392.000000	87.451663  
1391.000000	87.940137  
1390.000000	88.328926  
1389.000000	88.635849  
1388.000000	88.857702  
1387.000000	88.973473  
1386.000000	88.949981  
1385.000000	88.749019  
1384.000000	88.364547  
1383.000000	87.884181  
1382.000000	87.490976  
1381.000000	87.351919  
1380.000000	87.501078  
1379.000000	87.838660  
1378.000000	88.219215  
1377.000000	88.540320  
1376.000000	88.771642  
1375.000000	88.931198  
1374.000000	89.044595  
1373.000000	89.109759  
1372.000000	89.095341  
1371.000000	88.965852  
1370.000000	88.684970  
1369.000000	88.197947  
1368.000000	87.444834  
1367.000000	86.406470  
1366.000000	85.104235  
1365.000000	83.534100  
1364.000000	81.639666  
1363.000000	79.391982  
1362.000000	76.875739  
1361.000000	74.232098  
1360.000000	71.547033  
1359.000000	68.862759  
1358.000000	66.256728  
1357.000000	63.869090  
1356.000000	61.878131  
1355.000000	60.460485  
1354.000000	59.738226  
1353.000000	59.742356  
1352.000000	60.432738  
1351.000000	61.731203  
1350.000000	63.511772  
1349.000000	65.589321  
1348.000000	67.765362  
1347.000000	69.893942  
1346.000000	71.899452  
1345.000000	73.748792  
1344.000000	75.428320  
1343.000000	76.946151  
1342.000000	78.337024  
1341.000000	79.646481  
1340.000000	80.899998  
1339.000000	82.087035  
1338.000000	83.181281  
1337.000000	84.171755  
1336.000000	85.067538  
1335.000000	85.883968  
1334.000000	86.633436  
1333.000000	87.322018  
1332.000000	87.947637  
1331.000000	88.504708  
1330.000000	88.993478  
1329.000000	89.419870  
1328.000000	89.784799  
1327.000000	90.080759  
1326.000000	90.300479  
1325.000000	90.440516  
1324.000000	90.492409  
1323.000000	90.437610  
1322.000000	90.252167  
1321.000000	89.907208  
1320.000000	89.362809  
1319.000000	88.570056  
1318.000000	87.480945  
1317.000000	86.048405  
1316.000000	84.218654  
1315.000000	81.939227  
1314.000000	79.190893  
1313.000000	76.029901  
1312.000000	72.616738  
1311.000000	69.205217  
1310.000000	66.094683  
1309.000000	63.584028  
1308.000000	61.931838  
1307.000000	61.282125  
1306.000000	61.590460  
1305.000000	62.649360  
1304.000000	64.197110  
1303.000000	65.997103  
1302.000000	67.859915  
1301.000000	69.658602  
1300.000000	71.342102  
1299.000000	72.914318  
1298.000000	74.390424  
1297.000000	75.774265  
1296.000000	77.065342  
1295.000000	78.266280  
1294.000000	79.377660  
1293.000000	80.395076  
1292.000000	81.317268  
1291.000000	82.153911  
1290.000000	82.921468  
1289.000000	83.632441  
1288.000000	84.291356  
1287.000000	84.900066  
1286.000000	85.462498  
1285.000000	85.982825  
1284.000000	86.463456  
1283.000000	86.908723  
1282.000000	87.327667  
1281.000000	87.728635  
1280.000000	88.112264  
1279.000000	88.473163  
1278.000000	88.807537  
1277.000000	89.116442  
1276.000000	89.403880  
1275.000000	89.675472  
1274.000000	89.937150  
1273.000000	90.191223  
1272.000000	90.434674  
1271.000000	90.663269  
1270.000000	90.874347  
1269.000000	91.063768  
1268.000000	91.226317  
1267.000000	91.364604  
1266.000000	91.492206  
1265.000000	91.620871  
1264.000000	91.748478  
1263.000000	91.865457  
1262.000000	91.967880  
1261.000000	92.057243  
1260.000000	92.132327  
1259.000000	92.189521  
1258.000000	92.227535  
1257.000000	92.243058  
1256.000000	92.223870  
1255.000000	92.152364  
1254.000000	92.012238  
1253.000000	91.786284  
1252.000000	91.455779  
1251.000000	91.015933  
1250.000000	90.493668  
1249.000000	89.944471  
1248.000000	89.430448  
1247.000000	88.994111  
1246.000000	88.634147  
1245.000000	88.295384  
1244.000000	87.890068  
1243.000000	87.345053  
1242.000000	86.644162  
1241.000000	85.841820  
1240.000000	85.050883  
1239.000000	84.411573  
1238.000000	84.042859  
1237.000000	84.000301  
1236.000000	84.269025  
1235.000000	84.783648  
1234.000000	85.453825  
1233.000000	86.190339  
1232.000000	86.926972  
1231.000000	87.629163  
1230.000000	88.287829  
1229.000000	88.905475  
1228.000000	89.485152  
1227.000000	90.029111  
1226.000000	90.543172  
1225.000000	91.036019  
1224.000000	91.508277  
1223.000000	91.937756  
1222.000000	92.276023  
1221.000000	92.472022  
1220.000000	92.520050  
1219.000000	92.494391  
1218.000000	92.520803  
1217.000000	92.692236  
1216.000000	93.007881  
1215.000000	93.392577  
1214.000000	93.764241  
1213.000000	94.078798  
1212.000000	94.328317  
1211.000000	94.522530  
1210.000000	94.676958  
1209.000000	94.804815  
1208.000000	94.914232  
1207.000000	95.015525  
1206.000000	95.124829  
1205.000000	95.252592  
1204.000000	95.395091  
1203.000000	95.546314  
1202.000000	95.710887  
1201.000000	95.894114  
1200.000000	96.086819  
1199.000000	96.274860  
1198.000000	96.459836  
1197.000000	96.655615  
1196.000000	96.866405  
1195.000000	97.081997  
1194.000000	97.292622  
1193.000000	97.494391  
1192.000000	97.681127  
1191.000000	97.846295  
1190.000000	97.994912  
1189.000000	98.140202  
1188.000000	98.286253  
1187.000000	98.425026  
1186.000000	98.551005  
1185.000000	98.667463  
1184.000000	98.777612  
1183.000000	98.880478  
1182.000000	98.975846  
1181.000000	99.063331  
1180.000000	99.137240  
1179.000000	99.192177  
1178.000000	99.232072  
1177.000000	99.263534  
1176.000000	99.282525  
1175.000000	99.277230  
1174.000000	99.239815  
1173.000000	99.163485  
1172.000000	99.031799  
1171.000000	98.825464  
1170.000000	98.541079  
1169.000000	98.196313  
1168.000000	97.823579  
1167.000000	97.469688  
1166.000000	97.191309  
1165.000000	97.028382  
1164.000000	96.973334  
1163.000000	96.969014  
1162.000000	96.937018  
1161.000000	96.808875  
1160.000000	96.540802  
1159.000000	96.113379  
1158.000000	95.518042  
1157.000000	94.735994  
1156.000000	93.732979  
1155.000000	92.483339  
1154.000000	91.003450  
1153.000000	89.374146  
1152.000000	87.753601  
1151.000000	86.366657  
1150.000000	85.442777  
1149.000000	85.128258  
1148.000000	85.436017  
1147.000000	86.252546  
1146.000000	87.385182  
1145.000000	88.630509  
1144.000000	89.833764  
1143.000000	90.913360  
1142.000000	91.849682  
1141.000000	92.652891  
1140.000000	93.334090  
1139.000000	93.900344  
1138.000000	94.365797  
1137.000000	94.753188  
1136.000000	95.080923  
1135.000000	95.354963  
1134.000000	95.574674  
1133.000000	95.741114  
1132.000000	95.858064  
1131.000000	95.927928  
1130.000000	95.945962  
1129.000000	95.896371  
1128.000000	95.756423  
1127.000000	95.504199  
1126.000000	95.114449  
1125.000000	94.542292  
1124.000000	93.715950  
1123.000000	92.543192  
1122.000000	90.910901  
1121.000000	88.684092  
1120.000000	85.755632  
1119.000000	82.161872  
1118.000000	78.186717  
1117.000000	74.362498  
1116.000000	71.345294  
1115.000000	69.684059  
1114.000000	69.581060  
1113.000000	70.831805  
1112.000000	72.992533  
1111.000000	75.596326  
1110.000000	78.270911  
1109.000000	80.767757  
1108.000000	82.953461  
1107.000000	84.786931  
1106.000000	86.289765  
1105.000000	87.516088  
1104.000000	88.531027  
1103.000000	89.398697  
1102.000000	90.170004  
1101.000000	90.872050  
1100.000000	91.511829  
1099.000000	92.092085  
1098.000000	92.614176  
1097.000000	93.069863  
1096.000000	93.446882  
1095.000000	93.751461  
1094.000000	94.013536  
1093.000000	94.260470  
1092.000000	94.495992  
1091.000000	94.712177  
1090.000000	94.908770  
1089.000000	95.089738  
1088.000000	95.252250  
1087.000000	95.392389  
1086.000000	95.515112  
1085.000000	95.629197  
1084.000000	95.739845  
1083.000000	95.852981  
1082.000000	95.975897  
1081.000000	96.105262  
1080.000000	96.225953  
1079.000000	96.331252  
1078.000000	96.433181  
1077.000000	96.543326  
1076.000000	96.655969  
1075.000000	96.761368  
1074.000000	96.863163  
1073.000000	96.969451  
1072.000000	97.077474  
1071.000000	97.179766  
1070.000000	97.275443  
1069.000000	97.363764  
1068.000000	97.437681  
1067.000000	97.496523  
1066.000000	97.554105  
1065.000000	97.620537  
1064.000000	97.686128  
1063.000000	97.736721  
1062.000000	97.774868  
1061.000000	97.812264  
1060.000000	97.851492  
1059.000000	97.889537  
1058.000000	97.929917  
1057.000000	97.976613  
1056.000000	98.023587  
1055.000000	98.063909  
1054.000000	98.102435  
1053.000000	98.147152  
1052.000000	98.196237  
1051.000000	98.248434  
1050.000000	98.318839  
1049.000000	98.427817  
1048.000000	98.579818  
1047.000000	98.766449  
1046.000000	98.982710  
1045.000000	99.227237  
1044.000000	99.491970  
1043.000000	99.760913  
1042.000000	100.013616 
1041.000000	100.222861 
1040.000000	100.356830 
1039.000000	100.392324 
1038.000000	100.318046 
1037.000000	100.115493 
1036.000000	99.743322  
1035.000000	99.145937  
1034.000000	98.272874  
1033.000000	97.104728  
1032.000000	95.699495  
1031.000000	94.222149  
1030.000000	92.886450  
1029.000000	91.842027  
1028.000000	91.133954  
1027.000000	90.756641  
1026.000000	90.687085  
1025.000000	90.836907  
1024.000000	91.003028  
1023.000000	90.901969  
1022.000000	90.260856  
1021.000000	88.895191  
1020.000000	86.775151  
1019.000000	84.101368  
1018.000000	81.317024  
1017.000000	78.981490  
1016.000000	77.568298  
1015.000000	77.304321  
1014.000000	78.115382  
1013.000000	79.696287  
1012.000000	81.657559  
1011.000000	83.664470  
1010.000000	85.515104  
1009.000000	87.137750  
1008.000000	88.528091  
1007.000000	89.693222  
1006.000000	90.644814  
1005.000000	91.412226  
1004.000000	92.036031  
1003.000000	92.550842  
1002.000000	92.980436  
1001.000000	93.341136  
1000.000000	93.642855  
999.000000	 93.892366  
998.000000	 94.099452  
997.000000	 94.274993  
996.000000	 94.422911  
995.000000	 94.541247  
994.000000	 94.631570  
993.000000	 94.700553  
992.000000	 94.753218  
991.000000	 94.792539  
990.000000	 94.824655  
989.000000	 94.855758  
988.000000	 94.883616  
987.000000	 94.900026  
986.000000	 94.902302  
985.000000	 94.896245  
984.000000	 94.888726  
983.000000	 94.883686  
982.000000	 94.883967  
981.000000	 94.890529  
980.000000	 94.901228  
979.000000	 94.916487  
978.000000	 94.944604  
977.000000	 94.995920  
976.000000	 95.073579  
975.000000	 95.174439  
974.000000	 95.295046  
973.000000	 95.430241  
972.000000	 95.569297  
971.000000	 95.700879  
970.000000	 95.820136  
969.000000	 95.925556  
968.000000	 96.013591  
967.000000	 96.084465  
966.000000	 96.148245  
965.000000	 96.214774  
964.000000	 96.280885  
963.000000	 96.338101  
962.000000	 96.389828  
961.000000	 96.448587  
960.000000	 96.516643  
959.000000	 96.581001  
958.000000	 96.629064  
957.000000	 96.659078  
956.000000	 96.672958  
955.000000	 96.668661  
954.000000	 96.644198  
953.000000	 96.603615  
952.000000	 96.556195  
951.000000	 96.512639  
950.000000	 96.480823  
949.000000	 96.461222  
948.000000	 96.448098  
947.000000	 96.438598  
946.000000	 96.437285  
945.000000	 96.447663  
944.000000	 96.464591  
943.000000	 96.481293  
942.000000	 96.498291  
941.000000	 96.516989  
940.000000	 96.529023  
939.000000	 96.523023  
938.000000	 96.500981  
937.000000	 96.477655  
936.000000	 96.461493  
935.000000	 96.442063  
934.000000	 96.397144  
933.000000	 96.307941  
932.000000	 96.167683  
931.000000	 95.978464  
930.000000	 95.736723  
929.000000	 95.417591  
928.000000	 94.977190  
927.000000	 94.374942  
926.000000	 93.590574  
925.000000	 92.618838  
924.000000	 91.462544  
923.000000	 90.151287  
922.000000	 88.778049  
921.000000	 87.521376  
920.000000	 86.622665  
919.000000	 86.301322  
918.000000	 86.640475  
917.000000	 87.535407  
916.000000	 88.755930  
915.000000	 90.063629  
914.000000	 91.292424  
913.000000	 92.359462  
912.000000	 93.239429  
911.000000	 93.944817  
910.000000	 94.512402  
909.000000	 94.979030  
908.000000	 95.362047  
907.000000	 95.667975  
906.000000	 95.911362  
905.000000	 96.110855  
904.000000	 96.272628  
903.000000	 96.393583  
902.000000	 96.479389  
901.000000	 96.546929  
900.000000	 96.610362  
899.000000	 96.674469  
898.000000	 96.737776  
897.000000	 96.793561  
896.000000	 96.833377  
895.000000	 96.859825  
894.000000	 96.889369  
893.000000	 96.931653  
892.000000	 96.973459  
891.000000	 96.995848  
890.000000	 97.000740  
889.000000	 97.007083  
888.000000	 97.026746  
887.000000	 97.057663  
886.000000	 97.094021  
885.000000	 97.127916  
884.000000	 97.146868  
883.000000	 97.147434  
882.000000	 97.148299  
881.000000	 97.172299  
880.000000	 97.216722  
879.000000	 97.257306  
878.000000	 97.279552  
877.000000	 97.289105  
876.000000	 97.292674  
875.000000	 97.287570  
874.000000	 97.270560  
873.000000	 97.239216  
872.000000	 97.183352  
871.000000	 97.092238  
870.000000	 96.972662  
869.000000	 96.844761  
868.000000	 96.716853  
867.000000	 96.574833  
866.000000	 96.395087  
865.000000	 96.155887  
864.000000	 95.835994  
863.000000	 95.411987  
862.000000	 94.854382  
861.000000	 94.112142  
860.000000	 93.095559  
859.000000	 91.677383  
858.000000	 89.713494  
857.000000	 87.084146  
856.000000	 83.774491  
855.000000	 79.974859  
854.000000	 76.109099  
853.000000	 72.734283  
852.000000	 70.374954  
851.000000	 69.374159  
850.000000	 69.794628  
849.000000	 71.407527  
848.000000	 73.785574  
847.000000	 76.455782  
846.000000	 79.047138  
845.000000	 81.366412  
844.000000	 83.367153  
843.000000	 85.066595  
842.000000	 86.496664  
841.000000	 87.700981  
840.000000	 88.731498  
839.000000	 89.629221  
838.000000	 90.413971  
837.000000	 91.092899  
836.000000	 91.671373  
835.000000	 92.157866  
834.000000	 92.567436  
833.000000	 92.921199  
832.000000	 93.237085  
831.000000	 93.520896  
830.000000	 93.769449  
829.000000	 93.982192  
828.000000	 94.169480  
827.000000	 94.351439  
826.000000	 94.545509  
825.000000	 94.748829  
824.000000	 94.937071  
823.000000	 95.091404  
822.000000	 95.223111  
821.000000	 95.357800  
820.000000	 95.498702  
819.000000	 95.621622  
818.000000	 95.706830  
817.000000	 95.762569  
816.000000	 95.813160  
815.000000	 95.873610  
814.000000	 95.940063  
813.000000	 95.998164  
812.000000	 96.036433  
811.000000	 96.056101  
810.000000	 96.071665  
809.000000	 96.099631  
808.000000	 96.147101  
807.000000	 96.213507  
806.000000	 96.297223  
805.000000	 96.391791  
804.000000	 96.480296  
803.000000	 96.546648  
802.000000	 96.592665  
801.000000	 96.631036  
800.000000	 96.659130  
799.000000	 96.653514  
798.000000	 96.598216  
797.000000	 96.510786  
796.000000	 96.434056  
795.000000	 96.405355  
794.000000	 96.431650  
793.000000	 96.484532  
792.000000	 96.517339  
791.000000	 96.497053  
790.000000	 96.426644  
789.000000	 96.333190  
788.000000	 96.233252  
787.000000	 96.116308  
786.000000	 95.962258  
785.000000	 95.764396  
784.000000	 95.526487  
783.000000	 95.240201  
782.000000	 94.871095  
781.000000	 94.366090  
780.000000	 93.672649  
779.000000	 92.755902  
778.000000	 91.610191  
777.000000	 90.267341  
776.000000	 88.794118  
775.000000	 87.260288  
774.000000	 85.687691  
773.000000	 84.047793  
772.000000	 82.355353  
771.000000	 80.784684  
770.000000	 79.666439  
769.000000	 79.329664  
768.000000	 79.915711  
767.000000	 81.304224  
766.000000	 83.183577  
765.000000	 85.199489  
764.000000	 87.079986  
763.000000	 88.683492  
762.000000	 89.985070  
761.000000	 91.029960  
760.000000	 91.878495  
759.000000	 92.572643  
758.000000	 93.138392  
757.000000	 93.603114  
756.000000	 93.998495  
755.000000	 94.346278  
754.000000	 94.647873  
753.000000	 94.894438  
752.000000	 95.091207  
751.000000	 95.269567  
750.000000	 95.465823  
749.000000	 95.684778  
748.000000	 95.893693  
747.000000	 96.059113  
746.000000	 96.181479  
745.000000	 96.284891  
744.000000	 96.383351  
743.000000	 96.472068  
742.000000	 96.545551  
741.000000	 96.607217  
740.000000	 96.662179  
739.000000	 96.714809  
738.000000	 96.772730  
737.000000	 96.840283  
736.000000	 96.908985  
735.000000	 96.966989  
734.000000	 97.016710  
733.000000	 97.070020  
732.000000	 97.127942  
731.000000	 97.180647  
730.000000	 97.227735  
729.000000	 97.281375  
728.000000	 97.347493  
727.000000	 97.418752  
726.000000	 97.487702  
725.000000	 97.553847  
724.000000	 97.614339  
723.000000	 97.661092  
722.000000	 97.691795  
721.000000	 97.712816  
720.000000	 97.725902  
719.000000	 97.721360  
718.000000	 97.692863  
717.000000	 97.650075  
716.000000	 97.608401  
715.000000	 97.573326  
714.000000	 97.539250  
713.000000	 97.499269  
712.000000	 97.453940  
711.000000	 97.412827  
710.000000	 97.388068  
709.000000	 97.382656  
708.000000	 97.384898  
707.000000	 97.378743  
706.000000	 97.358047  
705.000000	 97.330473  
704.000000	 97.311123  
703.000000	 97.311291  
702.000000	 97.327467  
701.000000	 97.337926  
700.000000	 97.317076  
699.000000	 97.263396  
698.000000	 97.206214  
697.000000	 97.178623  
696.000000	 97.191763  
695.000000	 97.239617  
694.000000	 97.318205  
693.000000	 97.421753  
692.000000	 97.523917  
691.000000	 97.586667  
690.000000	 97.593867  
689.000000	 97.568704  
688.000000	 97.552055  
687.000000	 97.563299  
686.000000	 97.584804  
685.000000	 97.583754  
684.000000	 97.550393  
683.000000	 97.511533  
682.000000	 97.495282  
681.000000	 97.487769  
680.000000	 97.448523  
679.000000	 97.375619  
678.000000	 97.322920  
677.000000	 97.332476  
676.000000	 97.378834  
675.000000	 97.406126  
674.000000	 97.392597  
673.000000	 97.350703  
672.000000	 97.282719  
671.000000	 97.170633  
670.000000	 97.011526  
669.000000	 96.864365  
668.000000	 96.796002  
667.000000	 96.727908  
666.000000	 96.647440  
665.000000	 96.560489  
664.000000	 96.423199  
663.000000	 96.221500  
662.000000	 95.966017  
661.000000	 95.659958  
660.000000	 95.285456  
659.000000	 94.827200  
658.000000	 94.280604  
657.000000	 93.617198  
656.000000	 92.777162  
655.000000	 91.518861  
654.000000	 90.214888  
653.000000	 88.641751  
652.000000	 86.766331  
651.000000	 84.613205  
650.000000	 82.264208  

